# Wavelength table for acs,hrc,g800l_hrc
#
#      WAVELENGTH
#       angstroms
      5000
      5025
      5050
      5075
      5100
      5125
      5150
      5175
      5200
      5225
      5250
      5275
      5300
      5325
      5350
      5375
      5400
      5425
      5450
      5475
      5500
      5525
      5550
      5575
      5600
      5625
      5650
      5675
      5700
      5725
      5750
      5775
      5800
      5825
      5850
      5875
      5900
      5925
      5950
      5975
      6000
      6025
      6050
      6075
      6100
      6125
      6150
      6175
      6200
      6225
      6250
      6275
      6300
      6325
      6350
      6375
      6400
      6425
      6450
      6475
      6500
      6525
      6550
      6575
      6600
      6625
      6650
      6675
      6700
      6725
      6750
      6775
      6800
      6825
      6850
      6875
      6900
      6925
      6950
      6975
      7000
      7025
      7050
      7075
      7100
      7125
      7150
      7175
      7200
      7225
      7250
      7275
      7300
      7325
      7350
      7375
      7400
      7425
      7450
      7475
      7500
      7525
      7550
      7575
      7600
      7625
      7650
      7675
      7700
      7725
      7750
      7775
      7800
      7825
      7850
      7875
      7900
      7925
      7950
      7975
      8000
      8025
      8050
      8075
      8100
      8125
      8150
      8175
      8200
      8225
      8250
      8275
      8300
      8325
      8350
      8375
      8400
      8425
      8450
      8475
      8500
      8525
      8550
      8575
      8600
      8625
      8650
      8675
      8700
      8725
      8750
      8775
      8800
      8825
      8850
      8875
      8900
      8925
      8950
      8975
      9000
      9025
      9050
      9075
      9100
      9125
      9150
      9175
      9200
      9225
      9250
      9275
      9300
      9325
      9350
      9375
      9400
      9425
      9450
      9475
      9500
      9525
      9550
      9575
      9600
      9625
      9650
      9675
      9700
      9725
      9750
      9775
      9800
      9825
      9850
      9875
      9900
      9925
      9950
      9975
     10000
     10025
     10050
     10075
     10100
     10125
     10150
     10175
     10200
     10225
     10250
     10275
     10300
     10325
     10350
     10375
     10400
     10425
     10450
     10475
     10500
     10525
     10550
     10575
     10600
     10625
     10650
     10675
     10700
     10725
     10750
     10775
     10800
     10825
     10850
     10875
     10900
     10925
     10950
     10975
     11000
