# Wavelength table for fgs
2000.00 
2004.63 
2009.28 
2013.93 
2018.60 
2023.28 
2027.97 
2032.66 
2037.37 
2042.10 
2046.83 
2051.57 
2056.32 
2061.09 
2065.86 
2070.65 
2075.45 
2080.26 
2085.08 
2089.91 
2094.75 
2099.60 
2104.47 
2109.34 
2114.23 
2119.13 
2124.04 
2128.96 
2133.89 
2138.84 
2143.79 
2148.76 
2153.74 
2158.73 
2163.73 
2168.75 
2173.77 
2178.81 
2183.86 
2188.92 
2193.99 
2199.07 
2204.17 
2209.27 
2214.39 
2219.52 
2224.67 
2229.82 
2234.99 
2240.17 
2245.36 
2250.56 
2255.77 
2261.00 
2266.24 
2271.49 
2276.75 
2282.03 
2287.32 
2292.62 
2297.93 
2303.25 
2308.59 
2313.94 
2319.30 
2324.67 
2330.06 
2335.46 
2340.87 
2346.29 
2351.73 
2357.18 
2362.64 
2368.12 
2373.60 
2379.10 
2384.61 
2390.14 
2395.68 
2401.23 
2406.79 
2412.37 
2417.96 
2423.56 
2429.18 
2434.81 
2440.45 
2446.10 
2451.77 
2457.45 
2463.14 
2468.85 
2474.57 
2480.30 
2486.05 
2491.81 
2497.59 
2503.37 
2509.17 
2514.99 
2520.81 
2526.66 
2532.51 
2538.38 
2544.26 
2550.15 
2556.06 
2561.99 
2567.92 
2573.87 
2579.84 
2585.81 
2591.80 
2597.81 
2603.83 
2609.86 
2615.91 
2621.97 
2628.05 
2634.13 
2640.24 
2646.36 
2652.49 
2658.63 
2664.79 
2670.97 
2677.16 
2683.36 
2689.58 
2695.81 
2702.05 
2708.32 
2714.59 
2720.88 
2727.18 
2733.50 
2739.84 
2746.19 
2752.55 
2758.93 
2765.32 
2771.73 
2778.15 
2784.59 
2791.04 
2797.50 
2803.99 
2810.48 
2816.99 
2823.52 
2830.06 
2836.62 
2843.19 
2849.78 
2856.38 
2863.00 
2869.64 
2876.29 
2882.95 
2889.63 
2896.33 
2903.04 
2909.76 
2916.50 
2923.26 
2930.04 
2936.82 
2943.63 
2950.45 
2957.29 
2964.14 
2971.01 
2977.89 
2984.79 
2991.71 
2998.64 
3005.59 
3012.55 
3019.53 
3026.53 
3033.54 
3040.57 
3047.61 
3054.67 
3061.75 
3068.85 
3075.96 
3083.08 
3090.23 
3097.39 
3104.56 
3111.76 
3118.97 
3126.19 
3133.44 
3140.70 
3147.97 
3155.27 
3162.58 
3169.91 
3177.25 
3184.61 
3191.99 
3199.39 
3206.80 
3214.23 
3221.68 
3229.14 
3236.63 
3244.13 
3251.64 
3259.18 
3266.73 
3274.30 
3281.88 
3289.49 
3297.11 
3304.75 
3312.41 
3320.08 
3327.77 
3335.48 
3343.21 
3350.96 
3358.72 
3366.51 
3374.31 
3382.12 
3389.96 
3397.82 
3405.69 
3413.58 
3421.49 
3429.42 
3437.36 
3445.33 
3453.31 
3461.31 
3469.33 
3477.37 
3485.43 
3493.50 
3501.60 
3509.71 
3517.84 
3525.99 
3534.16 
3542.35 
3550.56 
3558.79 
3567.03 
3575.30 
3583.58 
3591.89 
3600.21 
3608.55 
3616.91 
3625.29 
3633.69 
3642.11 
3650.55 
3659.01 
3667.49 
3675.98 
3684.50 
3693.04 
3701.59 
3710.17 
3718.77 
3727.38 
3736.02 
3744.68 
3753.35 
3762.05 
3770.77 
3779.50 
3788.26 
3797.04 
3805.84 
3814.66 
3823.49 
3832.35 
3841.23 
3850.13 
3859.05 
3868.00 
3876.96 
3885.94 
3894.94 
3903.97 
3913.01 
3922.08 
3931.17 
3940.28 
3949.41 
3958.56 
3967.73 
3976.92 
3986.14 
3995.37 
4004.63 
4013.91 
4023.21 
4032.53 
4041.88 
4051.24 
4060.63 
4070.04 
4079.47 
4088.92 
4098.39 
4107.89 
4117.41 
4126.95 
4136.51 
4146.09 
4155.70 
4165.33 
4174.98 
4184.65 
4194.35 
4204.07 
4213.81 
4223.57 
4233.36 
4243.17 
4253.00 
4262.85 
4272.73 
4282.63 
4292.55 
4302.50 
4312.47 
4322.46 
4332.48 
4342.52 
4352.58 
4362.66 
4372.77 
4382.90 
4393.06 
4403.24 
4413.44 
4423.66 
4433.91 
4444.19 
4454.49 
4464.81 
4475.15 
4485.52 
4495.91 
4506.33 
4516.77 
4527.24 
4537.73 
4548.24 
4558.78 
4569.34 
4579.93 
4590.54 
4601.18 
4611.84 
4622.53 
4633.24 
4643.97 
4654.73 
4665.52 
4676.33 
4687.16 
4698.02 
4708.91 
4719.82 
4730.75 
4741.72 
4752.70 
4763.71 
4774.75 
4785.81 
4796.90 
4808.02 
4819.16 
4830.32 
4841.52 
4852.73 
4863.98 
4875.25 
4886.54 
4897.87 
4909.22 
4920.59 
4931.99 
4943.42 
4954.87 
4966.35 
4977.86 
4989.39 
5000.96 
5012.54 
5024.16 
5035.80 
5047.47 
5059.16 
5070.88 
5082.63 
5094.41 
5106.21 
5118.04 
5129.90 
5141.79 
5153.70 
5165.64 
5177.61 
5189.61 
5201.63 
5213.69 
5225.77 
5237.88 
5250.01 
5262.18 
5274.37 
5286.59 
5298.84 
5311.12 
5323.42 
5335.76 
5348.12 
5360.51 
5372.93 
5385.38 
5397.86 
5410.37 
5422.90 
5435.47 
5448.06 
5460.68 
5473.34 
5486.02 
5498.73 
5511.47 
5524.24 
5537.04 
5549.87 
5562.73 
5575.62 
5588.54 
5601.49 
5614.47 
5627.47 
5640.51 
5653.58 
5666.68 
5679.81 
5692.97 
5706.16 
5719.38 
5732.64 
5745.92 
5759.23 
5772.58 
5785.95 
5799.36 
5812.80 
5826.26 
5839.76 
5853.29 
5866.86 
5880.45 
5894.08 
5907.73 
5921.42 
5935.14 
5948.89 
5962.68 
5976.49 
5990.34 
6004.22 
6018.13 
6032.08 
6046.05 
6060.06 
6074.10 
6088.18 
6102.28 
6116.42 
6130.59 
6144.80 
6159.04 
6173.31 
6187.61 
6201.95 
6216.32 
6230.72 
6245.16 
6259.63 
6274.13 
6288.67 
6303.24 
6317.84 
6332.48 
6347.16 
6361.86 
6376.60 
6391.38 
6406.19 
6421.03 
6435.91 
6450.82 
6465.77 
6480.75 
6495.76 
6510.81 
6525.90 
6541.02 
6556.18 
6571.37 
6586.59 
6601.86 
6617.15 
6632.48 
6647.85 
6663.25 
6678.69 
6694.17 
6709.68 
6725.23 
6740.81 
6756.43 
6772.08 
6787.77 
6803.50 
6819.26 
6835.06 
6850.90 
6866.78 
6882.69 
6898.63 
6914.62 
6930.64 
6946.70 
6962.79 
6978.93 
6995.10 
7011.30 
7027.55 
7043.83 
7060.15 
7076.51 
7092.91 
7109.34 
7125.82 
7142.33 
7158.87 
7175.46 
7192.09 
7208.75 
7225.46 
7242.20 
7258.98 
7275.80 
7292.65 
7309.55 
7326.49 
7343.46 
7360.48 
7377.53 
7394.63 
7411.76 
7428.93 
7446.15 
7463.40 
7480.69 
7498.03 
7515.40 
7532.81 
7550.27 
7567.76 
7585.30 
7602.87 
7620.49 
7638.14 
7655.84 
7673.58 
7691.36 
7709.18 
7727.04 
7744.95 
7762.89 
7780.88 
7798.91 
7816.98 
7835.09 
7853.24 
7871.44 
7889.68 
7907.96 
7926.28 
7944.65 
7963.06 
7981.51 
8000.00 
