# Wavelength table for fos,red,g190h
    1580.21
    1581.65
     1583.1
    1584.55
    1585.99
    1587.44
    1588.89
    1590.33
    1591.78
    1593.23
    1594.68
    1596.12
    1597.57
    1599.02
    1600.47
    1601.91
    1603.36
    1604.81
    1606.26
     1607.7
    1609.15
     1610.6
    1612.05
    1613.49
    1614.94
    1616.39
    1617.84
    1619.28
    1620.73
    1622.18
    1623.63
    1625.07
    1626.52
    1627.97
    1629.42
    1630.87
    1632.31
    1633.76
    1635.21
    1636.66
    1638.11
    1639.55
      1641.
    1642.45
     1643.9
    1645.35
    1646.79
    1648.24
    1649.69
    1651.14
    1652.59
    1654.04
    1655.48
    1656.93
    1658.38
    1659.83
    1661.28
    1662.73
    1664.17
    1665.62
    1667.07
    1668.52
    1669.97
    1671.42
    1672.87
    1674.31
    1675.76
    1677.21
    1678.66
    1680.11
    1681.56
    1683.01
    1684.46
     1685.9
    1687.35
     1688.8
    1690.25
     1691.7
    1693.15
     1694.6
    1696.05
     1697.5
    1698.94
    1700.39
    1701.84
    1703.29
    1704.74
    1706.19
    1707.64
    1709.09
    1710.54
    1711.99
    1713.44
    1714.89
    1716.34
    1717.79
    1719.23
    1720.68
    1722.13
    1723.58
    1725.03
    1726.48
    1727.93
    1729.38
    1730.83
    1732.28
    1733.73
    1735.18
    1736.63
    1738.08
    1739.53
    1740.98
    1742.43
    1743.88
    1745.33
    1746.78
    1748.23
    1749.68
    1751.13
    1752.58
    1754.03
    1755.48
    1756.93
    1758.38
    1759.83
    1761.28
    1762.73
    1764.18
    1765.63
    1767.08
    1768.53
    1769.98
    1771.43
    1772.88
    1774.33
    1775.78
    1777.23
    1778.68
    1780.13
    1781.58
    1783.03
    1784.48
    1785.93
    1787.38
    1788.83
    1790.28
    1791.74
    1793.19
    1794.64
    1796.09
    1797.54
    1798.99
    1800.44
    1801.89
    1803.34
    1804.79
    1806.24
    1807.69
    1809.14
     1810.6
    1812.05
     1813.5
    1814.95
     1816.4
    1817.85
     1819.3
    1820.75
     1822.2
    1823.65
    1825.11
    1826.56
    1828.01
    1829.46
    1830.91
    1832.36
    1833.81
    1835.26
    1836.71
    1838.17
    1839.62
    1841.07
    1842.52
    1843.97
    1845.42
    1846.87
    1848.33
    1849.78
    1851.23
    1852.68
    1854.13
    1855.58
    1857.04
    1858.49
    1859.94
    1861.39
    1862.84
    1864.29
    1865.75
     1867.2
    1868.65
     1870.1
    1871.55
      1873.
    1874.46
    1875.91
    1877.36
    1878.81
    1880.26
    1881.72
    1883.17
    1884.62
    1886.07
    1887.52
    1888.98
    1890.43
    1891.88
    1893.33
    1894.78
    1896.24
    1897.69
    1899.14
    1900.59
    1902.05
     1903.5
    1904.95
     1906.4
    1907.85
    1909.31
    1910.76
    1912.21
    1913.66
    1915.12
    1916.57
    1918.02
    1919.47
    1920.93
    1922.38
    1923.83
    1925.28
    1926.74
    1928.19
    1929.64
    1931.09
    1932.55
      1934.
    1935.45
    1936.91
    1938.36
    1939.81
    1941.26
    1942.72
    1944.17
    1945.62
    1947.08
    1948.53
    1949.98
    1951.43
    1952.89
    1954.34
    1955.79
    1957.25
     1958.7
    1960.15
    1961.61
    1963.06
    1964.51
    1965.96
    1967.42
    1968.87
    1970.32
    1971.78
    1973.23
    1974.68
    1976.14
    1977.59
    1979.04
     1980.5
    1981.95
     1983.4
    1984.86
    1986.31
    1987.76
    1989.22
    1990.67
    1992.12
    1993.58
    1995.03
    1996.48
    1997.94
    1999.39
    2000.85
     2002.3
    2003.75
    2005.21
    2006.66
    2008.11
    2009.57
    2011.02
    2012.48
    2013.93
    2015.38
    2016.84
    2018.29
    2019.74
     2021.2
    2022.65
    2024.11
    2025.56
    2027.01
    2028.47
    2029.92
    2031.38
    2032.83
    2034.28
    2035.74
    2037.19
    2038.65
     2040.1
    2041.55
    2043.01
    2044.46
    2045.92
    2047.37
    2048.83
    2050.28
    2051.73
    2053.19
    2054.64
     2056.1
    2057.55
    2059.01
    2060.46
    2061.91
    2063.37
    2064.82
    2066.28
    2067.73
    2069.19
    2070.64
     2072.1
    2073.55
      2075.
    2076.46
    2077.91
    2079.37
    2080.82
    2082.28
    2083.73
    2085.19
    2086.64
     2088.1
    2089.55
    2091.01
    2092.46
    2093.92
    2095.37
    2096.82
    2098.28
    2099.73
    2101.19
    2102.64
     2104.1
    2105.55
    2107.01
    2108.46
    2109.92
    2111.37
    2112.83
    2114.28
    2115.74
    2117.19
    2118.65
     2120.1
    2121.56
    2123.01
    2124.47
    2125.92
    2127.38
    2128.83
    2130.29
    2131.75
     2133.2
    2134.66
    2136.11
    2137.57
    2139.02
    2140.48
    2141.93
    2143.39
    2144.84
     2146.3
    2147.75
    2149.21
    2150.66
    2152.12
    2153.58
    2155.03
    2156.49
    2157.94
     2159.4
    2160.85
    2162.31
    2163.76
    2165.22
    2166.68
    2168.13
    2169.59
    2171.04
     2172.5
    2173.95
    2175.41
    2176.87
    2178.32
    2179.78
    2181.23
    2182.69
    2184.14
     2185.6
    2187.06
    2188.51
    2189.97
    2191.42
    2192.88
    2194.34
    2195.79
    2197.25
     2198.7
    2200.16
    2201.61
    2203.07
    2204.53
    2205.98
    2207.44
     2208.9
    2210.35
    2211.81
    2213.26
    2214.72
    2216.18
    2217.63
    2219.09
    2220.54
      2222.
    2223.46
    2224.91
    2226.37
    2227.83
    2229.28
    2230.74
    2232.19
    2233.65
    2235.11
    2236.56
    2238.02
    2239.48
    2240.93
    2242.39
    2243.85
     2245.3
    2246.76
    2248.21
    2249.67
    2251.13
    2252.58
    2254.04
     2255.5
    2256.95
    2258.41
    2259.87
    2261.32
    2262.78
    2264.24
    2265.69
    2267.15
    2268.61
    2270.06
    2271.52
    2272.98
    2274.43
    2275.89
    2277.35
     2278.8
    2280.26
    2281.72
    2283.17
    2284.63
    2286.09
    2287.54
      2289.
    2290.46
    2291.92
    2293.37
    2294.83
    2296.29
    2297.74
     2299.2
    2300.66
    2302.11
    2303.57
    2305.03
    2306.48
    2307.94
     2309.4
    2310.86
    2312.31
    2313.77
    2315.23
    2316.68
    2318.14
     2319.6
    2321.06
    2322.51
