# Wavelength table for fos,blue,g190h
1575.25 
1576.72 
1578.19 
1579.66 
1581.13 
1582.60 
1584.07 
1585.55 
1587.02 
1588.49 
1589.96 
1591.43 
1592.90 
1594.37 
1595.84 
1597.32 
1598.79 
1600.26 
1601.73 
1603.20 
1604.67 
1606.15 
1607.62 
1609.09 
1610.56 
1612.03 
1613.51 
1614.98 
1616.45 
1617.92 
1619.40 
1620.87 
1622.34 
1623.81 
1625.29 
1626.76 
1628.23 
1629.70 
1631.18 
1632.65 
1634.12 
1635.60 
1637.07 
1638.54 
1640.01 
1641.49 
1642.96 
1644.43 
1645.91 
1647.38 
1648.85 
1650.33 
1651.80 
1653.28 
1654.75 
1656.22 
1657.70 
1659.17 
1660.64 
1662.12 
1663.59 
1665.06 
1666.54 
1668.01 
1669.49 
1670.96 
1672.44 
1673.91 
1675.38 
1676.86 
1678.33 
1679.81 
1681.28 
1682.75 
1684.23 
1685.70 
1687.18 
1688.65 
1690.13 
1691.60 
1693.08 
1694.55 
1696.03 
1697.50 
1698.97 
1700.45 
1701.92 
1703.40 
1704.87 
1706.35 
1707.82 
1709.30 
1710.77 
1712.25 
1713.72 
1715.20 
1716.67 
1718.15 
1719.62 
1721.10 
1722.57 
1724.05 
1725.52 
1727.00 
1728.48 
1729.95 
1731.43 
1732.90 
1734.38 
1735.85 
1737.33 
1738.80 
1740.28 
1741.75 
1743.23 
1744.70 
1746.18 
1747.66 
1749.13 
1750.61 
1752.08 
1753.56 
1755.03 
1756.51 
1757.98 
1759.46 
1760.94 
1762.41 
1763.89 
1765.36 
1766.84 
1768.31 
1769.79 
1771.27 
1772.74 
1774.22 
1775.69 
1777.17 
1778.64 
1780.12 
1781.60 
1783.07 
1784.55 
1786.02 
1787.50 
1788.97 
1790.45 
1791.93 
1793.40 
1794.88 
1796.35 
1797.83 
1799.30 
1800.78 
1802.26 
1803.73 
1805.21 
1806.68 
1808.16 
1809.63 
1811.11 
1812.59 
1814.06 
1815.54 
1817.01 
1818.49 
1819.97 
1821.44 
1822.92 
1824.39 
1825.87 
1827.34 
1828.82 
1830.30 
1831.77 
1833.25 
1834.72 
1836.20 
1837.67 
1839.15 
1840.62 
1842.10 
1843.58 
1845.05 
1846.53 
1848.00 
1849.48 
1850.95 
1852.43 
1853.90 
1855.38 
1856.86 
1858.33 
1859.81 
1861.28 
1862.76 
1864.23 
1865.71 
1867.18 
1868.66 
1870.13 
1871.61 
1873.08 
1874.56 
1876.03 
1877.51 
1878.98 
1880.46 
1881.93 
1883.41 
1884.88 
1886.36 
1887.83 
1889.31 
1890.78 
1892.26 
1893.73 
1895.21 
1896.68 
1898.16 
1899.63 
1901.11 
1902.58 
1904.06 
1905.53 
1907.01 
1908.48 
1909.96 
1911.43 
1912.90 
1914.38 
1915.85 
1917.33 
1918.80 
1920.28 
1921.75 
1923.22 
1924.70 
1926.17 
1927.65 
1929.12 
1930.60 
1932.07 
1933.54 
1935.02 
1936.49 
1937.96 
1939.44 
1940.91 
1942.39 
1943.86 
1945.33 
1946.81 
1948.28 
1949.75 
1951.23 
1952.70 
1954.17 
1955.65 
1957.12 
1958.59 
1960.07 
1961.54 
1963.01 
1964.49 
1965.96 
1967.43 
1968.90 
1970.38 
1971.85 
1973.32 
1974.79 
1976.27 
1977.74 
1979.21 
1980.68 
1982.16 
1983.63 
1985.10 
1986.57 
1988.05 
1989.52 
1990.99 
1992.46 
1993.93 
1995.40 
1996.88 
1998.35 
1999.82 
2001.29 
2002.76 
2004.23 
2005.71 
2007.18 
2008.65 
2010.12 
2011.59 
2013.06 
2014.53 
2016.00 
2017.47 
2018.94 
2020.42 
2021.89 
2023.36 
2024.83 
2026.30 
2027.77 
2029.24 
2030.71 
2032.18 
2033.65 
2035.12 
2036.59 
2038.06 
2039.53 
2041.00 
2042.47 
2043.94 
2045.41 
2046.88 
2048.35 
2049.81 
2051.28 
2052.75 
2054.22 
2055.69 
2057.16 
2058.63 
2060.10 
2061.57 
2063.03 
2064.50 
2065.97 
2067.44 
2068.91 
2070.38 
2071.84 
2073.31 
2074.78 
2076.25 
2077.72 
2079.18 
2080.65 
2082.12 
2083.59 
2085.05 
2086.52 
2087.99 
2089.45 
2090.92 
2092.39 
2093.85 
2095.32 
2096.79 
2098.25 
2099.72 
2101.19 
2102.65 
2104.12 
2105.58 
2107.05 
2108.52 
2109.98 
2111.45 
2112.91 
2114.38 
2115.84 
2117.31 
2118.77 
2120.24 
2121.70 
2123.17 
2124.63 
2126.10 
2127.56 
2129.03 
2130.49 
2131.96 
2133.42 
2134.88 
2136.35 
2137.81 
2139.28 
2140.74 
2142.20 
2143.67 
2145.13 
2146.59 
2148.06 
2149.52 
2150.98 
2152.44 
2153.91 
2155.37 
2156.83 
2158.29 
2159.76 
2161.22 
2162.68 
2164.14 
2165.60 
2167.07 
2168.53 
2169.99 
2171.45 
2172.91 
2174.37 
2175.83 
2177.29 
2178.76 
2180.22 
2181.68 
2183.14 
2184.60 
2186.06 
2187.52 
2188.98 
2190.44 
2191.90 
2193.36 
2194.82 
2196.27 
2197.73 
2199.19 
2200.65 
2202.11 
2203.57 
2205.03 
2206.49 
2207.94 
2209.40 
2210.86 
2212.32 
2213.78 
2215.23 
2216.69 
2218.15 
2219.61 
2221.06 
2222.52 
2223.98 
2225.43 
2226.89 
2228.35 
2229.80 
2231.26 
2232.72 
2234.17 
2235.63 
2237.08 
2238.54 
2239.99 
2241.45 
2242.91 
2244.36 
2245.82 
2247.27 
2248.72 
2250.18 
2251.63 
2253.09 
2254.54 
2256.00 
2257.45 
2258.90 
2260.36 
2261.81 
2263.26 
2264.72 
2266.17 
2267.62 
2269.07 
2270.53 
2271.98 
2273.43 
2274.88 
2276.34 
2277.79 
2279.24 
2280.69 
2282.14 
2283.59 
2285.04 
2286.49 
2287.94 
2289.40 
2290.85 
2292.30 
2293.75 
2295.20 
2296.65 
2298.10 
2299.55 
2300.99 
2302.44 
2303.89 
2305.34 
2306.79 
2308.24 
2309.69 
2311.14 
2312.58 
2314.03 
2315.48 
2316.93 
2318.37 
2319.82 
2321.27 
2322.72 
2324.16 
2325.61 
