# Wavelength table for fos,blue,g160l
5.75    
12.01   
18.28   
24.56   
30.84   
37.13   
43.42   
49.72   
56.02   
62.33   
68.64   
74.96   
81.28   
87.60   
93.94   
100.27  
106.61  
112.96  
119.31  
125.67  
132.03  
138.39  
144.76  
151.14  
157.52  
163.90  
170.29  
176.68  
183.08  
189.49  
195.89  
202.30  
208.72  
215.14  
221.57  
228.00  
234.43  
240.87  
247.32  
253.76  
260.22  
266.67  
273.14  
279.60  
286.07  
292.55  
299.02  
305.51  
311.99  
318.49  
324.98  
331.48  
337.98  
344.49  
351.01  
357.52  
364.04  
370.57  
377.10  
383.63  
390.17  
396.71  
403.25  
409.80  
416.35  
422.91  
429.47  
436.04  
442.60  
449.18  
455.75  
462.33  
468.92  
475.50  
482.10  
488.69  
495.29  
501.89  
508.50  
515.11  
521.72  
528.34  
534.96  
541.59  
548.22  
554.85  
561.48  
568.12  
574.76  
581.41  
588.06  
594.71  
601.37  
608.03  
614.69  
621.36  
628.03  
634.70  
641.38  
648.06  
654.74  
661.43  
668.12  
674.81  
681.51  
688.21  
694.91  
701.62  
708.32  
715.04  
721.75  
728.47  
735.19  
741.92  
748.64  
755.37  
762.11  
768.84  
775.58  
782.32  
789.07  
795.82  
802.57  
809.32  
816.08  
822.84  
829.60  
836.37  
843.13  
849.90  
856.68  
863.45  
870.23  
877.01  
883.80  
890.58  
897.37  
904.17  
910.96  
917.76  
924.56  
931.36  
938.16  
944.97  
951.78  
958.59  
965.41  
972.22  
979.04  
985.86  
992.69  
999.52  
1006.34 
1013.17 
1020.01 
1026.84 
1033.68 
1040.52 
1047.36 
1054.21 
1061.05 
1067.90 
1074.75 
1081.61 
1088.46 
1095.32 
1102.18 
1109.04 
1115.90 
1122.77 
1129.64 
1136.50 
1143.38 
1150.25 
1157.12 
1164.00 
1170.88 
1177.76 
1184.64 
1191.53 
1198.41 
1205.30 
1212.19 
1219.08 
1225.97 
1232.87 
1239.77 
1246.66 
1253.56 
1260.46 
1267.37 
1274.27 
1281.18 
1288.09 
1294.99 
1301.91 
1308.82 
1315.73 
1322.65 
1329.56 
1336.48 
1343.40 
1350.32 
1357.24 
1364.17 
1371.09 
1378.02 
1384.95 
1391.87 
1398.80 
1405.74 
1412.67 
1419.60 
1426.54 
1433.47 
1440.41 
1447.35 
1454.29 
1461.23 
1468.17 
1475.11 
1482.05 
1489.00 
1495.94 
1502.89 
1509.84 
1516.79 
1523.74 
1530.69 
1537.64 
1544.59 
1551.54 
1558.50 
1565.45 
1572.40 
1579.36 
1586.32 
1593.27 
1600.23 
1607.19 
1614.15 
1621.11 
1628.07 
1635.03 
1642.00 
1648.96 
1655.92 
1662.88 
1669.85 
1676.81 
1683.78 
1690.74 
1697.71 
1704.68 
1711.64 
1718.61 
1725.58 
1732.55 
1739.51 
1746.48 
1753.45 
1760.42 
1767.39 
1774.36 
1781.33 
1788.30 
1795.27 
1802.24 
1809.21 
1816.18 
1823.15 
1830.13 
1837.10 
1844.07 
1851.04 
1858.01 
1864.98 
1871.95 
1878.92 
1885.89 
1892.87 
1899.84 
1906.81 
1913.78 
1920.75 
1927.72 
1934.69 
1941.66 
1948.63 
1955.60 
1962.57 
1969.54 
1976.50 
1983.47 
1990.44 
1997.41 
2004.38 
2011.34 
2018.31 
2025.27 
2032.24 
2039.20 
2046.17 
2053.13 
2060.10 
2067.06 
2074.02 
2080.98 
2087.95 
2094.91 
2101.87 
2108.82 
2115.78 
2122.74 
2129.70 
2136.66 
2143.61 
2150.57 
2157.52 
2164.47 
2171.43 
2178.38 
2185.33 
2192.28 
2199.23 
2206.18 
2213.12 
2220.07 
2227.01 
2233.96 
2240.90 
2247.84 
2254.78 
2261.73 
2268.66 
2275.60 
2282.54 
2289.47 
2296.41 
2303.34 
2310.27 
2317.20 
2324.13 
2331.06 
2337.99 
2344.92 
2351.84 
2358.76 
2365.69 
2372.61 
2379.52 
2386.44 
2393.36 
2400.27 
2407.19 
2414.10 
2421.01 
2427.92 
2434.82 
2441.73 
2448.63 
2455.54 
2462.44 
2469.34 
2476.23 
2483.13 
2490.03 
