# Wavelength table for fos,red,g160l
       3.05
      10.01
      16.97
      23.93
      30.89
      37.85
      44.81
      51.76
      58.72
      65.68
      72.64
       79.6
      86.56
      93.52
     100.48
     107.43
     114.39
     121.35
     128.31
     135.27
     142.23
     149.19
     156.14
      163.1
     170.06
     177.02
     183.98
     190.94
      197.9
     204.86
     211.81
     218.77
     225.73
     232.69
     239.65
     246.61
     253.57
     260.53
     267.48
     274.44
      281.4
     288.36
     295.32
     302.28
     309.24
      316.2
     323.15
     330.11
     337.07
     344.03
     350.99
     357.95
     364.91
     371.87
     378.82
     385.78
     392.74
      399.7
     406.66
     413.62
     420.58
     427.54
     434.49
     441.45
     448.41
     455.37
     462.33
     469.29
     476.25
     483.21
     490.16
     497.12
     504.08
     511.04
       518.
     524.96
     531.92
     538.88
     545.83
     552.79
     559.75
     566.71
     573.67
     580.63
     587.59
     594.54
      601.5
     608.46
     615.42
     622.38
     629.34
      636.3
     643.26
     650.21
     657.17
     664.13
     671.09
     678.05
     685.01
     691.97
     698.93
     705.88
     712.84
      719.8
     726.76
     733.72
     740.68
     747.64
      754.6
     761.55
     768.51
     775.47
     782.43
     789.39
     796.35
     803.31
     810.27
     817.22
     824.18
     831.14
      838.1
     845.06
     852.02
     858.98
     865.94
     872.89
     879.85
     886.81
     893.77
     900.73
     907.69
     914.65
     921.61
     928.56
     935.52
     942.48
     949.44
      956.4
     963.36
     970.32
     977.28
     984.23
     991.19
     998.15
    1005.11
    1012.07
    1019.03
    1025.99
    1032.94
     1039.9
    1046.86
    1053.82
    1060.78
    1067.74
     1074.7
    1081.66
    1088.61
    1095.57
    1102.53
    1109.49
    1116.45
    1123.41
    1130.37
    1137.33
    1144.28
    1151.24
     1158.2
    1165.16
    1172.12
    1179.08
    1186.04
      1193.
    1199.95
    1206.91
    1213.87
    1220.83
    1227.79
    1234.75
    1241.71
    1248.67
    1255.62
    1262.58
    1269.54
     1276.5
    1283.46
    1290.42
    1297.38
    1304.34
    1311.29
    1318.25
    1325.21
    1332.17
    1339.13
    1346.09
    1353.05
    1360.01
    1366.96
    1373.92
    1380.88
    1387.84
     1394.8
    1401.76
    1408.72
    1415.68
    1422.63
    1429.59
    1436.55
    1443.51
    1450.47
    1457.43
    1464.39
    1471.34
     1478.3
    1485.26
    1492.22
    1499.18
    1506.14
     1513.1
    1520.06
    1527.01
    1533.97
    1540.93
    1547.89
    1554.85
    1561.81
    1568.77
    1575.73
    1582.68
    1589.64
     1596.6
    1603.56
    1610.52
    1617.48
    1624.44
     1631.4
    1638.35
    1645.31
    1652.27
    1659.23
    1666.19
    1673.15
    1680.11
    1687.07
    1694.02
    1700.98
    1707.94
     1714.9
    1721.86
    1728.82
    1735.78
    1742.74
    1749.69
    1756.65
    1763.61
    1770.57
    1777.53
    1784.49
    1791.45
    1798.41
    1805.36
    1812.32
    1819.28
    1826.24
     1833.2
    1840.16
    1847.12
    1854.08
    1861.03
    1867.99
    1874.95
    1881.91
    1888.87
    1895.83
    1902.79
    1909.74
     1916.7
    1923.66
    1930.62
    1937.58
    1944.54
     1951.5
    1958.46
    1965.41
    1972.37
    1979.33
    1986.29
    1993.25
    2000.21
    2007.17
    2014.13
    2021.08
    2028.04
      2035.
    2041.96
    2048.92
    2055.88
    2062.84
     2069.8
    2076.75
    2083.71
    2090.67
    2097.63
    2104.59
    2111.55
    2118.51
    2125.47
    2132.42
    2139.38
    2146.34
     2153.3
    2160.26
    2167.22
    2174.18
    2181.14
    2188.09
    2195.05
    2202.01
    2208.97
    2215.93
    2222.89
    2229.85
    2236.81
    2243.76
    2250.72
    2257.68
    2264.64
     2271.6
    2278.56
    2285.52
    2292.48
    2299.43
    2306.39
    2313.35
    2320.31
    2327.27
    2334.23
    2341.19
    2348.14
     2355.1
    2362.06
    2369.02
    2375.98
    2382.94
     2389.9
    2396.86
    2403.81
    2410.77
    2417.73
    2424.69
    2431.65
    2438.61
    2445.57
    2452.53
    2459.48
    2466.44
     2473.4
