# Wavelength table for fos,blue,prism
1393.91 
1394.41 
1394.91 
1395.42 
1395.92 
1396.43 
1396.93 
1397.44 
1397.96 
1398.47 
1398.99 
1399.51 
1400.03 
1400.55 
1401.07 
1401.60 
1402.13 
1402.66 
1403.19 
1403.73 
1404.26 
1404.80 
1405.34 
1405.89 
1406.43 
1406.98 
1407.53 
1408.08 
1408.64 
1409.20 
1409.76 
1410.32 
1410.88 
1411.45 
1412.02 
1412.59 
1413.16 
1413.73 
1414.31 
1414.89 
1415.48 
1416.06 
1416.65 
1417.24 
1417.83 
1418.43 
1419.02 
1419.62 
1420.23 
1420.83 
1421.44 
1422.05 
1422.66 
1423.28 
1423.90 
1424.52 
1425.14 
1425.77 
1426.40 
1427.03 
1427.66 
1428.30 
1428.94 
1429.58 
1430.23 
1430.88 
1431.53 
1432.18 
1432.84 
1433.50 
1434.16 
1434.83 
1435.50 
1436.17 
1436.85 
1437.52 
1438.21 
1438.89 
1439.58 
1440.27 
1440.96 
1441.66 
1442.36 
1443.06 
1443.77 
1444.48 
1445.19 
1445.91 
1446.63 
1447.35 
1448.07 
1448.80 
1449.54 
1450.27 
1451.01 
1451.76 
1452.50 
1453.25 
1454.01 
1454.77 
1455.53 
1456.29 
1457.06 
1457.83 
1458.61 
1459.39 
1460.17 
1460.96 
1461.75 
1462.54 
1463.34 
1464.15 
1464.95 
1465.76 
1466.58 
1467.40 
1468.22 
1469.04 
1469.88 
1470.71 
1471.55 
1472.39 
1473.24 
1474.09 
1474.95 
1475.81 
1476.67 
1477.54 
1478.42 
1479.30 
1480.18 
1481.07 
1481.96 
1482.85 
1483.76 
1484.66 
1485.57 
1486.49 
1487.41 
1488.33 
1489.26 
1490.20 
1491.14 
1492.08 
1493.03 
1493.99 
1494.95 
1495.91 
1496.88 
1497.86 
1498.84 
1499.82 
1500.82 
1501.81 
1502.81 
1503.82 
1504.84 
1505.85 
1506.88 
1507.91 
1508.95 
1509.99 
1511.04 
1512.09 
1513.15 
1514.21 
1515.29 
1516.36 
1517.45 
1518.54 
1519.63 
1520.74 
1521.84 
1522.96 
1524.08 
1525.21 
1526.34 
1527.49 
1528.63 
1529.79 
1530.95 
1532.12 
1533.29 
1534.48 
1535.67 
1536.86 
1538.07 
1539.28 
1540.49 
1541.72 
1542.95 
1544.19 
1545.44 
1546.70 
1547.96 
1549.23 
1550.51 
1551.80 
1553.09 
1554.40 
1555.71 
1557.03 
1558.36 
1559.69 
1561.04 
1562.39 
1563.75 
1565.12 
1566.50 
1567.89 
1569.29 
1570.70 
1572.11 
1573.54 
1574.97 
1576.42 
1577.87 
1579.33 
1580.80 
1582.29 
1583.78 
1585.28 
1586.79 
1588.32 
1589.85 
1591.39 
1592.95 
1594.51 
1596.09 
1597.67 
1599.27 
1600.88 
1602.50 
1604.13 
1605.77 
1607.42 
1609.09 
1610.77 
1612.45 
1614.16 
1615.87 
1617.59 
1619.33 
1621.08 
1622.85 
1624.62 
1626.41 
1628.22 
1630.03 
1631.86 
1633.70 
1635.56 
1637.43 
1639.31 
1641.21 
1643.13 
1645.05 
1647.00 
1648.95 
1650.93 
1652.91 
1654.92 
1656.94 
1658.97 
1661.02 
1663.09 
1665.17 
1667.27 
1669.39 
1671.52 
1673.67 
1675.84 
1678.02 
1680.22 
1682.44 
1684.68 
1686.94 
1689.22 
1691.51 
1693.83 
1696.16 
1698.51 
1700.89 
1703.28 
1705.69 
1708.13 
1710.58 
1713.06 
1715.56 
1718.07 
1720.62 
1723.18 
1725.77 
1728.38 
1731.01 
1733.66 
1736.34 
1739.05 
1741.78 
1744.53 
1747.31 
1750.11 
1752.94 
1755.80 
1758.68 
1761.59 
1764.53 
1767.49 
1770.49 
1773.51 
1776.56 
1779.64 
1782.75 
1785.89 
1789.06 
1792.26 
1795.50 
1798.76 
1802.06 
1805.39 
1808.76 
1812.15 
1815.59 
1819.06 
1822.56 
1826.10 
1829.68 
1833.29 
1836.95 
1840.64 
1844.37 
1848.14 
1851.95 
1855.80 
1859.69 
1863.63 
1867.61 
1871.63 
1875.70 
1879.81 
1883.97 
1888.18 
1892.43 
1896.74 
1901.09 
1905.49 
1909.95 
1914.45 
1919.01 
1923.62 
1928.29 
1933.01 
1937.79 
1942.63 
1947.53 
1952.49 
1957.51 
1962.59 
1967.73 
1972.94 
1978.22 
1983.56 
1988.97 
1994.45 
2000.00 
2005.63 
2011.33 
2017.10 
2022.96 
2028.89 
2034.90 
2040.99 
2047.17 
2053.43 
2059.78 
2066.22 
2072.75 
2079.38 
2086.09 
2092.91 
2099.82 
2106.84 
2113.96 
2121.19 
2128.52 
2135.97 
2143.53 
2151.20 
2159.00 
2166.92 
2174.96 
2183.13 
2191.43 
2199.86 
2208.43 
2217.15 
2226.01 
2235.01 
2244.17 
2253.48 
2262.96 
2272.59 
2282.40 
2292.38 
2302.54 
2312.88 
2323.41 
2334.13 
2345.05 
2356.18 
2367.51 
2379.06 
2390.84 
2402.84 
2415.08 
2427.57 
2440.30 
2453.30 
2466.56 
2480.10 
2493.93 
2508.05 
2522.47 
2537.21 
2552.27 
2567.67 
2583.42 
2599.53 
2616.02 
2632.89 
2650.16 
2667.85 
2685.98 
2704.55 
2723.60 
2743.13 
2763.17 
2783.73 
2804.85 
2826.54 
2848.83 
2871.75 
2895.32 
2919.58 
2944.55 
2970.28 
2996.79 
3024.14 
3052.35 
3081.48 
3111.58 
3142.70 
3174.89 
3208.22 
3242.76 
3278.58 
3315.76 
3354.39 
3394.56 
3436.38 
3479.96 
3525.43 
3572.93 
3622.62 
3674.68 
3729.29 
3786.69 
3847.10 
3910.83 
3978.17 
4049.49 
4125.22 
4205.82 
4291.85 
4383.96 
4482.89 
4589.55 
4704.99 
4830.47 
4967.52 
5117.97 
5284.09 
5468.66 
5675.15 
5907.92 
6172.52 
6476.09 
6827.94 
7240.34 
7729.75 
8318.54 
9037.73 
9931.10 
11061.80
12523.11
14456.62
