# Wavelength table for hrs,echb,21
2613.000 
2613.030 
2613.060 
2613.089 
2613.119 
2613.149 
2613.179 
2613.209 
2613.238 
2613.268 
2613.298 
2613.328 
2613.358 
2613.387 
2613.417 
2613.447 
2613.477 
2613.506 
2613.536 
2613.566 
2613.596 
2613.626 
2613.655 
2613.685 
2613.715 
2613.745 
2613.774 
2613.804 
2613.834 
2613.864 
2613.894 
2613.923 
2613.953 
2613.983 
2614.013 
2614.042 
2614.072 
2614.102 
2614.132 
2614.161 
2614.191 
2614.221 
2614.251 
2614.281 
2614.310 
2614.340 
2614.370 
2614.400 
2614.429 
2614.459 
2614.489 
2614.519 
2614.548 
2614.578 
2614.608 
2614.638 
2614.667 
2614.697 
2614.727 
2614.757 
2614.786 
2614.816 
2614.846 
2614.876 
2614.905 
2614.935 
2614.965 
2614.994 
2615.024 
2615.054 
2615.084 
2615.113 
2615.143 
2615.173 
2615.203 
2615.232 
2615.262 
2615.292 
2615.321 
2615.351 
2615.381 
2615.411 
2615.440 
2615.470 
2615.500 
2615.530 
2615.559 
2615.589 
2615.619 
2615.648 
2615.678 
2615.708 
2615.738 
2615.767 
2615.797 
2615.827 
2615.856 
2615.886 
2615.916 
2615.946 
2615.975 
2616.005 
2616.035 
2616.064 
2616.094 
2616.124 
2616.153 
2616.183 
2616.213 
2616.243 
2616.272 
2616.302 
2616.332 
2616.361 
2616.391 
2616.421 
2616.450 
2616.480 
2616.510 
2616.539 
2616.569 
2616.599 
2616.628 
2616.658 
2616.688 
2616.718 
2616.747 
2616.777 
2616.807 
2616.836 
2616.866 
2616.896 
2616.925 
2616.955 
2616.985 
2617.014 
2617.044 
2617.074 
2617.103 
2617.133 
2617.163 
2617.192 
2617.222 
2617.252 
2617.281 
2617.311 
2617.341 
2617.370 
2617.400 
2617.430 
2617.459 
2617.489 
2617.519 
2617.548 
2617.578 
2617.608 
2617.637 
2617.667 
2617.696 
2617.726 
2617.756 
2617.785 
2617.815 
2617.845 
2617.874 
2617.904 
2617.934 
2617.963 
2617.993 
2618.023 
2618.052 
2618.082 
2618.111 
2618.141 
2618.171 
2618.200 
2618.230 
2618.260 
2618.289 
2618.319 
2618.349 
2618.378 
2618.408 
2618.437 
2618.467 
2618.497 
2618.526 
2618.556 
2618.586 
2618.615 
2618.645 
2618.674 
2618.704 
2618.734 
2618.763 
2618.793 
2618.822 
2618.852 
2618.882 
2618.911 
2618.941 
2618.970 
2619.000 
2619.030 
2619.059 
2619.089 
2619.119 
2619.148 
2619.178 
2619.207 
2619.237 
2619.267 
2619.296 
2619.326 
2619.355 
2619.385 
2619.414 
2619.444 
2619.474 
2619.503 
2619.533 
2619.562 
2619.592 
2619.622 
2619.651 
2619.681 
2619.710 
2619.740 
2619.770 
2619.799 
2619.829 
2619.858 
2619.888 
2619.917 
2619.947 
2619.977 
2620.006 
2620.036 
2620.065 
2620.095 
2620.124 
2620.154 
2620.184 
2620.213 
2620.243 
2620.272 
2620.302 
2620.331 
2620.361 
2620.391 
2620.420 
2620.450 
2620.479 
2620.509 
2620.538 
2620.568 
2620.597 
2620.627 
2620.657 
2620.686 
2620.716 
2620.745 
2620.775 
2620.804 
2620.834 
2620.863 
2620.893 
2620.923 
2620.952 
2620.982 
2621.011 
2621.041 
2621.070 
2621.100 
2621.129 
2621.159 
2621.188 
2621.218 
2621.247 
2621.277 
2621.307 
2621.336 
2621.366 
2621.395 
2621.425 
2621.454 
2621.484 
2621.513 
2621.543 
2621.572 
2621.602 
2621.631 
2621.661 
2621.690 
2621.720 
2621.749 
2621.779 
2621.808 
2621.838 
2621.867 
2621.897 
2621.926 
2621.956 
2621.986 
2622.015 
2622.045 
2622.074 
2622.104 
2622.133 
2622.163 
2622.192 
2622.222 
2622.251 
2622.281 
2622.310 
2622.340 
2622.369 
2622.399 
2622.428 
2622.458 
2622.487 
2622.517 
2622.546 
2622.576 
2622.605 
2622.634 
2622.664 
2622.693 
2622.723 
2622.752 
2622.782 
2622.811 
2622.841 
2622.870 
2622.900 
2622.929 
2622.959 
2622.988 
2623.018 
2623.047 
2623.077 
2623.106 
2623.136 
2623.165 
2623.195 
2623.224 
2623.254 
2623.283 
2623.312 
2623.342 
2623.371 
2623.401 
2623.430 
2623.460 
2623.489 
2623.519 
2623.548 
2623.578 
2623.607 
2623.637 
2623.666 
2623.695 
2623.725 
2623.754 
2623.784 
2623.813 
2623.843 
2623.872 
2623.902 
2623.931 
2623.961 
2623.990 
2624.019 
2624.049 
2624.078 
2624.108 
2624.137 
2624.167 
2624.196 
2624.226 
2624.255 
2624.284 
2624.314 
2624.343 
2624.373 
2624.402 
2624.432 
2624.461 
2624.490 
2624.520 
2624.549 
2624.579 
2624.608 
2624.638 
2624.667 
2624.696 
2624.726 
2624.755 
2624.785 
2624.814 
2624.844 
2624.873 
2624.902 
2624.932 
2624.961 
2624.991 
2625.020 
2625.049 
2625.079 
2625.108 
2625.138 
2625.167 
2625.196 
2625.226 
2625.255 
2625.285 
2625.314 
2625.343 
2625.373 
2625.402 
2625.432 
2625.461 
2625.490 
2625.520 
2625.549 
2625.579 
2625.608 
2625.637 
2625.667 
2625.696 
2625.726 
2625.755 
2625.784 
2625.814 
2625.843 
2625.873 
2625.902 
2625.931 
2625.961 
2625.990 
2626.019 
2626.049 
2626.078 
2626.108 
2626.137 
2626.166 
2626.196 
2626.225 
2626.254 
2626.284 
2626.313 
2626.343 
2626.372 
2626.401 
2626.431 
2626.460 
2626.489 
2626.519 
2626.548 
2626.577 
2626.607 
2626.636 
2626.666 
2626.695 
2626.724 
2626.754 
2626.783 
2626.812 
2626.842 
2626.871 
2626.900 
2626.930 
2626.959 
2626.988 
2627.018 
2627.047 
2627.076 
2627.106 
2627.135 
2627.165 
2627.194 
2627.223 
2627.253 
2627.282 
2627.311 
2627.341 
2627.370 
2627.399 
2627.429 
2627.458 
2627.487 
2627.517 
2627.546 
2627.575 
2627.605 
2627.634 
2627.663 
2627.693 
2627.722 
2627.751 
2627.780 
2627.810 
2627.839 
2627.868 
2627.898 
2627.927 
2627.956 
2627.986 
2628.015 
2628.044 
2628.074 
2628.103 
2628.132 
2628.162 
2628.191 
2628.220 
2628.250 
2628.279 
2628.308 
2628.337 
2628.367 
2628.396 
2628.425 
2628.455 
2628.484 
2628.513 
2628.543 
2628.572 
2628.601 
2628.630 
2628.660 
2628.689 
2628.718 
2628.748 
2628.777 
2628.806 
2628.835 
2628.865 
2628.894 
2628.923 
2628.953 
2628.982 
2629.011 
2629.040 
2629.070 
2629.099 
2629.128 
2629.158 
2629.187 
2629.216 
2629.245 
2629.275 
2629.304 
2629.333 
2629.362 
2629.392 
2629.421 
2629.450 
2629.480 
2629.509 
2629.538 
2629.567 
2629.597 
2629.626 
2629.655 
2629.684 
2629.714 
2629.743 
2629.772 
2629.801 
2629.831 
2629.860 
2629.889 
2629.918 
2629.948 
2629.977 
2630.006 
2630.035 
2630.065 
2630.094 
2630.123 
2630.152 
2630.182 
2630.211 
2630.240 
2630.269 
2630.299 
2630.328 
2630.357 
2630.386 
2630.416 
2630.445 
2630.474 
2630.503 
2630.533 
2630.562 
2630.591 
2630.620 
2630.649 
2630.679 
2630.708 
2630.737 
2630.766 
2630.796 
2630.825 
2630.854 
2630.883 
2630.912 
2630.942 
2630.971 
2631.000 
2631.029 
2631.059 
2631.088 
2631.117 
2631.146 
2631.175 
2631.205 
2631.234 
2631.263 
2631.292 
2631.321 
2631.351 
2631.380 
2631.409 
2631.438 
2631.467 
2631.497 
2631.526 
2631.555 
2631.584 
2631.613 
2631.643 
2631.672 
2631.701 
2631.730 
2631.759 
2631.789 
2631.818 
2631.847 
2631.876 
2631.905 
2631.935 
2631.964 
2631.993 
2632.022 
2632.051 
2632.080 
2632.110 
2632.139 
2632.168 
2632.197 
2632.226 
2632.256 
2632.285 
2632.314 
2632.343 
2632.372 
2632.401 
2632.431 
2632.460 
2632.489 
2632.518 
2632.547 
2632.576 
2632.606 
2632.635 
2632.664 
2632.693 
2632.722 
2632.751 
2632.781 
2632.810 
2632.839 
2632.868 
2632.897 
2632.926 
2632.955 
2632.985 
2633.014 
2633.043 
2633.072 
2633.101 
2633.130 
2633.160 
2633.189 
2633.218 
2633.247 
2633.276 
2633.305 
2633.334 
2633.364 
2633.393 
2633.422 
2633.451 
2633.480 
2633.509 
2633.538 
2633.567 
2633.597 
2633.626 
2633.655 
2633.684 
2633.713 
2633.742 
2633.771 
2633.800 
2633.830 
2633.859 
2633.888 
2633.917 
2633.946 
2633.975 
2634.004 
2634.033 
2634.063 
2634.092 
2634.121 
2634.150 
2634.179 
2634.208 
2634.237 
2634.266 
2634.295 
2634.325 
2634.354 
2634.383 
2634.412 
2634.441 
2634.470 
2634.499 
2634.528 
2634.557 
2634.587 
2634.616 
2634.645 
2634.674 
2634.703 
2634.732 
2634.761 
2634.790 
2634.819 
2634.848 
2634.877 
2634.907 
2634.936 
2634.965 
2634.994 
2635.023 
2635.052 
2635.081 
2635.110 
2635.139 
2635.168 
2635.197 
2635.226 
2635.256 
2635.285 
2635.314 
2635.343 
2635.372 
2635.401 
2635.430 
2635.459 
2635.488 
2635.517 
2635.546 
2635.575 
2635.604 
2635.633 
2635.663 
2635.692 
2635.721 
2635.750 
2635.779 
2635.808 
2635.837 
2635.866 
2635.895 
2635.924 
2635.953 
2635.982 
2636.011 
2636.040 
2636.069 
2636.098 
2636.127 
2636.156 
2636.186 
2636.215 
2636.244 
2636.273 
2636.302 
2636.331 
2636.360 
2636.389 
2636.418 
2636.447 
2636.476 
2636.505 
2636.534 
2636.563 
2636.592 
2636.621 
2636.650 
2636.679 
2636.708 
2636.737 
2636.766 
2636.795 
2636.824 
2636.853 
2636.882 
2636.911 
2636.940 
2636.969 
2636.998 
2637.027 
2637.056 
2637.086 
2637.115 
2637.144 
2637.173 
2637.202 
2637.231 
2637.260 
2637.289 
2637.318 
2637.347 
2637.376 
2637.405 
2637.434 
2637.463 
2637.492 
2637.521 
2637.550 
2637.579 
2637.608 
2637.637 
2637.666 
2637.695 
2637.724 
2637.753 
2637.782 
2637.811 
2637.840 
2637.869 
2637.898 
2637.927 
2637.956 
2637.985 
2638.014 
2638.043 
2638.072 
2638.101 
2638.129 
2638.158 
2638.187 
2638.216 
2638.245 
2638.274 
2638.303 
2638.332 
2638.361 
2638.390 
2638.419 
2638.448 
2638.477 
2638.506 
2638.535 
2638.564 
2638.593 
2638.622 
2638.651 
2638.680 
2638.709 
2638.738 
2638.767 
2638.796 
2638.825 
2638.854 
2638.883 
2638.912 
2638.941 
2638.970 
2638.999 
2639.027 
2639.056 
2639.085 
2639.114 
2639.143 
2639.172 
2639.201 
2639.230 
2639.259 
2639.288 
2639.317 
2639.346 
2639.375 
2639.404 
2639.433 
2639.462 
2639.491 
2639.520 
2639.548 
2639.577 
2639.606 
2639.635 
2639.664 
2639.693 
2639.722 
2639.751 
2639.780 
2639.809 
2639.838 
2639.867 
2639.896 
2639.925 
2639.953 
2639.982 
2640.011 
2640.040 
2640.069 
2640.098 
2640.127 
2640.156 
2640.185 
2640.214 
2640.243 
2640.272 
2640.300 
2640.329 
2640.358 
2640.387 
2640.416 
2640.445 
2640.474 
2640.503 
2640.532 
2640.561 
2640.590 
2640.618 
2640.647 
2640.676 
2640.705 
2640.734 
2640.763 
2640.792 
2640.821 
2640.850 
2640.879 
2640.907 
2640.936 
2640.965 
2640.994 
2641.023 
2641.052 
2641.081 
2641.110 
2641.138 
2641.167 
2641.196 
2641.225 
2641.254 
2641.283 
2641.312 
2641.341 
2641.370 
2641.398 
2641.427 
2641.456 
2641.485 
2641.514 
2641.543 
2641.572 
2641.600 
2641.629 
2641.658 
2641.687 
2641.716 
2641.745 
2641.774 
2641.803 
2641.831 
2641.860 
2641.889 
2641.918 
2641.947 
2641.976 
2642.005 
2642.033 
2642.062 
2642.091 
2642.120 
2642.149 
2642.178 
2642.207 
2642.235 
2642.264 
2642.293 
2642.322 
2642.351 
2642.380 
2642.408 
2642.437 
2642.466 
2642.495 
2642.524 
2642.553 
2642.581 
2642.610 
2642.639 
2642.668 
2642.697 
2642.726 
2642.754 
2642.783 
2642.812 
2642.841 
2642.870 
2642.899 
2642.927 
2642.956 
2642.985 
2643.014 
2643.043 
2643.072 
2643.100 
2643.129 
2643.158 
2643.187 
2643.216 
2643.244 
2643.273 
2643.302 
2643.331 
2643.360 
2643.388 
2643.417 
2643.446 
2643.475 
2643.504 
2643.532 
2643.561 
2643.590 
2643.619 
2643.648 
2643.676 
2643.705 
2643.734 
2643.763 
2643.792 
2643.820 
2643.849 
2643.878 
2643.907 
2643.936 
2643.964 
2643.993 
2644.022 
2644.051 
2644.080 
2644.108 
2644.137 
2644.166 
2644.195 
2644.223 
2644.252 
2644.281 
2644.310 
2644.339 
2644.367 
2644.396 
2644.425 
2644.454 
2644.482 
2644.511 
2644.540 
2644.569 
2644.598 
2644.626 
2644.655 
2644.684 
2644.713 
2644.741 
2644.770 
2644.799 
2644.828 
2644.856 
2644.885 
2644.914 
2644.943 
2644.971 
2645.000 
2645.029 
2645.058 
2645.086 
2645.115 
2645.144 
2645.173 
2645.201 
2645.230 
2645.259 
2645.288 
2645.316 
2645.345 
2645.374 
2645.403 
2645.431 
2645.460 
2645.489 
2645.518 
2645.546 
2645.575 
2645.604 
2645.633 
2645.661 
2645.690 
2645.719 
2645.748 
2645.776 
2645.805 
2645.834 
2645.862 
2645.891 
2645.920 
2645.949 
2645.977 
2646.006 
2646.035 
2646.064 
2646.092 
2646.121 
2646.150 
2646.178 
2646.207 
2646.236 
2646.265 
2646.293 
2646.322 
2646.351 
2646.379 
2646.408 
2646.437 
2646.465 
2646.494 
2646.523 
2646.552 
2646.580 
2646.609 
2646.638 
2646.666 
2646.695 
2646.724 
2646.752 
2646.781 
2646.810 
2646.839 
2646.867 
2646.896 
2646.925 
2646.953 
2646.982 
2647.011 
2647.039 
2647.068 
2647.097 
2647.125 
2647.154 
2647.183 
2647.212 
2647.240 
2647.269 
2647.298 
2647.326 
2647.355 
2647.384 
2647.412 
2647.441 
2647.470 
2647.498 
2647.527 
2647.556 
2647.584 
2647.613 
2647.642 
2647.670 
2647.699 
2647.728 
2647.756 
2647.785 
2647.814 
2647.842 
2647.871 
2647.900 
2647.928 
2647.957 
2647.986 
2648.014 
2648.043 
2648.072 
2648.100 
2648.129 
2648.157 
2648.186 
2648.215 
2648.243 
2648.272 
2648.301 
2648.329 
2648.358 
2648.387 
2648.415 
2648.444 
2648.473 
2648.501 
2648.530 
2648.558 
2648.587 
2648.616 
2648.644 
2648.673 
2648.702 
2648.730 
2648.759 
2648.788 
2648.816 
2648.845 
2648.873 
2648.902 
2648.931 
2648.959 
2648.988 
2649.017 
2649.045 
2649.074 
2649.102 
2649.131 
2649.160 
2649.188 
2649.217 
2649.245 
2649.274 
2649.303 
2649.331 
2649.360 
2649.389 
2649.417 
2649.446 
2649.474 
2649.503 
2649.532 
2649.560 
2649.589 
2649.617 
2649.646 
2649.675 
2649.703 
2649.732 
2649.760 
2649.789 
2649.818 
2649.846 
2649.875 
2649.903 
2649.932 
2649.961 
2649.989 
2650.018 
2650.046 
2650.075 
2650.103 
2650.132 
2650.161 
2650.189 
2650.218 
2650.246 
2650.275 
2650.304 
2650.332 
2650.361 
2650.389 
2650.418 
2650.446 
2650.475 
2650.504 
2650.532 
2650.561 
2650.589 
2650.618 
2650.646 
2650.675 
2650.704 
2650.732 
2650.761 
2650.789 
2650.818 
2650.846 
2650.875 
2650.903 
2650.932 
2650.961 
2650.989 
2651.018 
2651.046 
2651.075 
2651.103 
2651.132 
2651.160 
2651.189 
2651.218 
2651.246 
2651.275 
2651.303 
2651.332 
2651.360 
2651.389 
2651.417 
2651.446 
2651.474 
2651.503 
2651.531 
2651.560 
2651.589 
2651.617 
2651.646 
2651.674 
2651.703 
2651.731 
2651.760 
2651.788 
2651.817 
2651.845 
2651.874 
2651.902 
2651.931 
2651.959 
2651.988 
2652.016 
2652.045 
2652.074 
2652.102 
2652.131 
2652.159 
2652.188 
2652.216 
2652.245 
2652.273 
2652.302 
2652.330 
2652.359 
2652.387 
2652.416 
2652.444 
2652.473 
2652.501 
2652.530 
2652.558 
2652.587 
2652.615 
2652.644 
2652.672 
2652.701 
2652.729 
2652.758 
2652.786 
2652.815 
2652.843 
2652.872 
2652.900 
2652.929 
2652.957 
2652.986 
2653.014 
2653.043 
2653.071 
2653.100 
2653.128 
2653.157 
2653.185 
2653.213 
2653.242 
2653.270 
2653.299 
2653.327 
2653.356 
2653.384 
2653.413 
2653.441 
2653.470 
2653.498 
2653.527 
2653.555 
2653.584 
2653.612 
2653.641 
2653.669 
2653.698 
2653.726 
2653.754 
2653.783 
2653.811 
2653.840 
2653.868 
2653.897 
2653.925 
2653.954 
2653.982 
2654.011 
2654.039 
2654.067 
2654.096 
2654.124 
2654.153 
2654.181 
2654.210 
2654.238 
2654.267 
2654.295 
2654.323 
2654.352 
2654.380 
2654.409 
2654.437 
2654.466 
2654.494 
2654.523 
2654.551 
2654.579 
2654.608 
2654.636 
2654.665 
2654.693 
2654.722 
2654.750 
2654.778 
2654.807 
2654.835 
2654.864 
2654.892 
2654.921 
2654.949 
2654.977 
2655.006 
2655.034 
2655.063 
2655.091 
2655.120 
2655.148 
2655.176 
2655.205 
2655.233 
2655.262 
2655.290 
2655.318 
2655.347 
2655.375 
2655.404 
2655.432 
2655.460 
2655.489 
2655.517 
2655.546 
2655.574 
2655.602 
2655.631 
2655.659 
2655.688 
2655.716 
2655.744 
2655.773 
2655.801 
2655.830 
2655.858 
2655.886 
2655.915 
2655.943 
2655.972 
2656.000 
2656.028 
2656.057 
2656.085 
2656.114 
2656.142 
2656.170 
2656.199 
2656.227 
2656.255 
2656.284 
2656.312 
2656.341 
2656.369 
2656.397 
2656.426 
2656.454 
2656.482 
2656.511 
2656.539 
2656.568 
2656.596 
2656.624 
2656.653 
2656.681 
2656.709 
2656.738 
2656.766 
2656.794 
2656.823 
2656.851 
2656.880 
2656.908 
2656.936 
2656.965 
2656.993 
2657.021 
2657.050 
2657.078 
2657.106 
2657.135 
2657.163 
2657.191 
2657.220 
2657.248 
2657.276 
2657.305 
2657.333 
2657.361 
2657.390 
2657.418 
2657.446 
2657.475 
2657.503 
2657.531 
2657.560 
2657.588 
2657.616 
2657.645 
2657.673 
2657.701 
2657.730 
2657.758 
2657.786 
2657.815 
2657.843 
2657.871 
2657.900 
2657.928 
2657.956 
2657.985 
2658.013 
2658.041 
2658.070 
2658.098 
2658.126 
2658.155 
2658.183 
2658.211 
2658.240 
2658.268 
2658.296 
2658.324 
2658.353 
2658.381 
2658.409 
2658.438 
2658.466 
2658.494 
2658.523 
2658.551 
2658.579 
2658.608 
2658.636 
2658.664 
2658.692 
2658.721 
2658.749 
2658.777 
2658.806 
2658.834 
2658.862 
2658.890 
2658.919 
2658.947 
2658.975 
2659.004 
2659.032 
2659.060 
2659.088 
2659.117 
2659.145 
2659.173 
2659.202 
2659.230 
2659.258 
2659.286 
2659.315 
2659.343 
2659.371 
2659.399 
2659.428 
2659.456 
2659.484 
2659.513 
2659.541 
2659.569 
2659.597 
2659.626 
2659.654 
2659.682 
2659.710 
2659.739 
2659.767 
2659.795 
2659.823 
2659.852 
2659.880 
2659.908 
2659.936 
2659.965 
2659.993 
2660.021 
2660.049 
2660.078 
2660.106 
2660.134 
2660.162 
2660.191 
2660.219 
2660.247 
2660.275 
2660.304 
2660.332 
2660.360 
2660.388 
2660.417 
2660.445 
2660.473 
2660.501 
2660.530 
2660.558 
2660.586 
2660.614 
2660.643 
2660.671 
2660.699 
2660.727 
2660.755 
2660.784 
2660.812 
2660.840 
2660.868 
2660.897 
2660.925 
2660.953 
2660.981 
2661.009 
2661.038 
2661.066 
2661.094 
2661.122 
2661.151 
2661.179 
2661.207 
2661.235 
2661.263 
2661.292 
2661.320 
2661.348 
2661.376 
2661.404 
2661.433 
2661.461 
2661.489 
2661.517 
2661.545 
2661.574 
2661.602 
2661.630 
2661.658 
2661.686 
2661.715 
2661.743 
2661.771 
2661.799 
2661.827 
2661.856 
2661.884 
2661.912 
2661.940 
2661.968 
2661.996 
2662.025 
2662.053 
2662.081 
2662.109 
2662.137 
2662.166 
2662.194 
2662.222 
2662.250 
2662.278 
2662.306 
2662.335 
2662.363 
2662.391 
2662.419 
2662.447 
2662.475 
2662.504 
2662.532 
2662.560 
2662.588 
2662.616 
2662.644 
2662.673 
2662.701 
2662.729 
2662.757 
2662.785 
2662.813 
2662.842 
2662.870 
2662.898 
2662.926 
2662.954 
2662.982 
2663.010 
2663.039 
2663.067 
2663.095 
2663.123 
2663.151 
2663.179 
2663.207 
2663.236 
2663.264 
2663.292 
2663.320 
2663.348 
2663.376 
2663.404 
2663.433 
2663.461 
2663.489 
2663.517 
2663.545 
2663.573 
2663.601 
2663.630 
2663.658 
2663.686 
2663.714 
2663.742 
2663.770 
2663.798 
2663.826 
2663.855 
2663.883 
2663.911 
2663.939 
2663.967 
2663.995 
2664.023 
2664.051 
2664.079 
2664.108 
2664.136 
2664.164 
2664.192 
2664.220 
2664.248 
2664.276 
2664.304 
2664.332 
2664.361 
2664.389 
2664.417 
2664.445 
2664.473 
2664.501 
2664.529 
2664.557 
2664.585 
2664.613 
2664.642 
2664.670 
2664.698 
2664.726 
2664.754 
2664.782 
2664.810 
2664.838 
2664.866 
2664.894 
2664.922 
2664.951 
2664.979 
2665.007 
2665.035 
2665.063 
2665.091 
2665.119 
2665.147 
2665.175 
2665.203 
2665.231 
2665.259 
2665.287 
2665.316 
2665.344 
2665.372 
2665.400 
2665.428 
2665.456 
2665.484 
2665.512 
2665.540 
2665.568 
2665.596 
2665.624 
2665.652 
2665.680 
2665.708 
2665.736 
2665.765 
2665.793 
2665.821 
2665.849 
2665.877 
2665.905 
2665.933 
2665.961 
2665.989 
2666.017 
2666.045 
2666.073 
2666.101 
2666.129 
2666.157 
2666.185 
2666.213 
2666.241 
2666.269 
2666.297 
2666.325 
2666.354 
2666.382 
2666.410 
2666.438 
2666.466 
2666.494 
2666.522 
2666.550 
2666.578 
2666.606 
2666.634 
2666.662 
2666.690 
2666.718 
2666.746 
2666.774 
2666.802 
2666.830 
2666.858 
2666.886 
2666.914 
2666.942 
2666.970 
2666.998 
2667.026 
2667.054 
2667.082 
2667.110 
2667.138 
2667.166 
2667.194 
2667.222 
2667.250 
2667.278 
2667.306 
2667.334 
2667.362 
2667.390 
2667.418 
2667.446 
2667.474 
2667.502 
2667.530 
2667.558 
2667.586 
2667.614 
2667.642 
2667.670 
2667.698 
2667.726 
2667.754 
2667.782 
2667.810 
2667.838 
2667.866 
2667.894 
2667.922 
2667.950 
2667.978 
2668.006 
2668.034 
2668.062 
2668.090 
2668.118 
2668.146 
2668.174 
2668.202 
2668.230 
2668.258 
2668.286 
2668.314 
2668.342 
2668.370 
2668.398 
2668.426 
2668.453 
2668.481 
2668.509 
2668.537 
2668.565 
2668.593 
2668.621 
2668.649 
2668.677 
2668.705 
2668.733 
2668.761 
2668.789 
2668.817 
2668.845 
2668.873 
2668.901 
2668.929 
2668.957 
2668.985 
2669.013 
2669.041 
2669.068 
2669.096 
2669.124 
2669.152 
2669.180 
2669.208 
2669.236 
2669.264 
2669.292 
2669.320 
2669.348 
2669.376 
2669.404 
2669.432 
2669.460 
2669.488 
2669.515 
2669.543 
2669.571 
2669.599 
2669.627 
2669.655 
2669.683 
2669.711 
2669.739 
2669.767 
2669.795 
2669.823 
2669.851 
2669.878 
2669.906 
2669.934 
2669.962 
2669.990 
2670.018 
2670.046 
2670.074 
2670.102 
2670.130 
2670.158 
2670.185 
2670.213 
2670.241 
2670.269 
2670.297 
2670.325 
2670.353 
2670.381 
2670.409 
2670.437 
2670.464 
2670.492 
2670.520 
2670.548 
2670.576 
2670.604 
2670.632 
2670.660 
2670.688 
2670.715 
2670.743 
2670.771 
2670.799 
2670.827 
2670.855 
2670.883 
2670.911 
2670.939 
2670.966 
2670.994 
2671.022 
2671.050 
2671.078 
2671.106 
2671.134 
2671.162 
2671.189 
2671.217 
2671.245 
2671.273 
2671.301 
2671.329 
2671.357 
2671.384 
2671.412 
2671.440 
2671.468 
2671.496 
2671.524 
2671.552 
2671.579 
2671.607 
2671.635 
2671.663 
2671.691 
2671.719 
2671.747 
2671.774 
2671.802 
2671.830 
2671.858 
2671.886 
2671.914 
2671.942 
2671.969 
2671.997 
2672.025 
2672.053 
2672.081 
2672.109 
2672.136 
2672.164 
2672.192 
2672.220 
2672.248 
2672.276 
2672.303 
2672.331 
2672.359 
2672.387 
2672.415 
2672.443 
2672.470 
2672.498 
2672.526 
2672.554 
2672.582 
2672.610 
2672.637 
2672.665 
2672.693 
2672.721 
2672.749 
2672.776 
2672.804 
2672.832 
2672.860 
2672.888 
2672.916 
2672.943 
2672.971 
2672.999 
2673.027 
2673.055 
2673.082 
2673.110 
2673.138 
2673.166 
2673.194 
2673.221 
2673.249 
2673.277 
2673.305 
2673.333 
2673.360 
2673.388 
2673.416 
2673.444 
2673.472 
2673.499 
2673.527 
2673.555 
2673.583 
2673.610 
2673.638 
2673.666 
2673.694 
2673.722 
2673.749 
2673.777 
2673.805 
2673.833 
2673.861 
2673.888 
2673.916 
2673.944 
2673.972 
2673.999 
2674.027 
2674.055 
2674.083 
2674.110 
2674.138 
2674.166 
2674.194 
2674.222 
2674.249 
2674.277 
2674.305 
2674.333 
2674.360 
2674.388 
2674.416 
2674.444 
2674.471 
2674.499 
2674.527 
2674.555 
2674.582 
2674.610 
2674.638 
2674.666 
2674.693 
2674.721 
2674.749 
2674.777 
2674.804 
2674.832 
2674.860 
2674.888 
2674.915 
2674.943 
2674.971 
2674.999 
2675.026 
2675.054 
2675.082 
2675.110 
2675.137 
2675.165 
2675.193 
2675.221 
2675.248 
2675.276 
2675.304 
2675.331 
2675.359 
2675.387 
2675.415 
2675.442 
2675.470 
2675.498 
2675.526 
2675.553 
2675.581 
2675.609 
2675.636 
2675.664 
2675.692 
2675.720 
2675.747 
2675.775 
2675.803 
2675.830 
2675.858 
2675.886 
2675.914 
2675.941 
2675.969 
2675.997 
2676.024 
2676.052 
2676.080 
2676.107 
2676.135 
2676.163 
2676.191 
2676.218 
2676.246 
2676.274 
2676.301 
2676.329 
2676.357 
2676.384 
2676.412 
2676.440 
2676.467 
2676.495 
2676.523 
2676.551 
2676.578 
2676.606 
2676.634 
2676.661 
2676.689 
2676.717 
2676.744 
2676.772 
2676.800 
2676.827 
2676.855 
2676.883 
2676.910 
2676.938 
2676.966 
2676.993 
2677.021 
2677.049 
2677.076 
2677.104 
2677.132 
2677.159 
2677.187 
2677.215 
2677.242 
2677.270 
2677.298 
2677.325 
2677.353 
2677.381 
2677.408 
2677.436 
2677.464 
2677.491 
2677.519 
2677.547 
2677.574 
2677.602 
2677.630 
2677.657 
2677.685 
2677.713 
2677.740 
2677.768 
2677.795 
2677.823 
2677.851 
2677.878 
2677.906 
2677.934 
2677.961 
2677.989 
2678.017 
2678.044 
2678.072 
2678.099 
2678.127 
2678.155 
2678.182 
2678.210 
2678.238 
2678.265 
2678.293 
2678.320 
2678.348 
2678.376 
2678.403 
2678.431 
2678.459 
2678.486 
2678.514 
2678.541 
2678.569 
2678.597 
2678.624 
2678.652 
2678.680 
2678.707 
2678.735 
2678.762 
2678.790 
2678.818 
2678.845 
2678.873 
2678.900 
2678.928 
2678.956 
2678.983 
2679.011 
2679.038 
2679.066 
2679.094 
2679.121 
2679.149 
2679.176 
2679.204 
2679.232 
2679.259 
2679.287 
2679.314 
2679.342 
2679.370 
2679.397 
2679.425 
2679.452 
2679.480 
2679.507 
2679.535 
2679.563 
2679.590 
2679.618 
2679.645 
2679.673 
2679.701 
2679.728 
2679.756 
2679.783 
2679.811 
2679.838 
2679.866 
2679.894 
2679.921 
2679.949 
2679.976 
2680.004 
2680.031 
2680.059 
2680.086 
2680.114 
2680.142 
2680.169 
2680.197 
2680.224 
2680.252 
2680.279 
2680.307 
2680.335 
2680.362 
2680.390 
2680.417 
2680.445 
2680.472 
2680.500 
2680.527 
2680.555 
2680.582 
2680.610 
2680.638 
2680.665 
2680.693 
2680.720 
2680.748 
2680.775 
2680.803 
2680.830 
2680.858 
2680.885 
2680.913 
2680.941 
2680.968 
2680.996 
2681.023 
2681.051 
2681.078 
2681.106 
2681.133 
2681.161 
2681.188 
2681.216 
2681.243 
2681.271 
2681.298 
2681.326 
2681.353 
2681.381 
2681.408 
2681.436 
2681.463 
2681.491 
2681.519 
2681.546 
2681.574 
2681.601 
2681.629 
2681.656 
2681.684 
2681.711 
2681.739 
2681.766 
2681.794 
2681.821 
2681.849 
2681.876 
2681.904 
2681.931 
2681.959 
2681.986 
2682.014 
2682.041 
2682.069 
2682.096 
2682.124 
2682.151 
2682.179 
2682.206 
2682.234 
2682.261 
2682.289 
2682.316 
2682.343 
2682.371 
2682.398 
2682.426 
2682.453 
2682.481 
2682.508 
2682.536 
2682.563 
2682.591 
2682.618 
2682.646 
2682.673 
2682.701 
2682.728 
2682.756 
2682.783 
2682.811 
2682.838 
2682.866 
2682.893 
2682.920 
2682.948 
2682.975 
2683.003 
2683.030 
2683.058 
2683.085 
2683.113 
2683.140 
2683.168 
2683.195 
2683.223 
2683.250 
2683.277 
2683.305 
2683.332 
2683.360 
2683.387 
2683.415 
2683.442 
2683.470 
2683.497 
2683.524 
2683.552 
2683.579 
2683.607 
2683.634 
2683.662 
2683.689 
2683.717 
2683.744 
2683.771 
2683.799 
2683.826 
2683.854 
2683.881 
2683.909 
2683.936 
2683.963 
2683.991 
2684.018 
2684.046 
2684.073 
2684.101 
2684.128 
2684.155 
2684.183 
2684.210 
2684.238 
2684.265 
2684.293 
2684.320 
2684.347 
2684.375 
2684.402 
2684.430 
2684.457 
2684.484 
2684.512 
2684.539 
2684.567 
2684.594 
2684.621 
2684.649 
2684.676 
2684.704 
2684.731 
2684.758 
2684.786 
2684.813 
2684.841 
2684.868 
2684.895 
2684.923 
2684.950 
2684.978 
2685.005 
2685.032 
2685.060 
2685.087 
2685.115 
2685.142 
2685.169 
2685.197 
2685.224 
2685.252 
2685.279 
2685.306 
2685.334 
2685.361 
2685.388 
2685.416 
2685.443 
2685.471 
2685.498 
2685.525 
2685.553 
2685.580 
2685.607 
2685.635 
2685.662 
2685.690 
2685.717 
2685.744 
2685.772 
2685.799 
2685.826 
2685.854 
2685.881 
2685.908 
2685.936 
2685.963 
2685.991 
2686.018 
2686.045 
2686.073 
2686.100 
2686.127 
2686.155 
2686.182 
2686.209 
2686.237 
2686.264 
2686.291 
2686.319 
2686.346 
2686.373 
2686.401 
2686.428 
2686.455 
2686.483 
2686.510 
2686.537 
2686.565 
2686.592 
2686.620 
2686.647 
2686.674 
2686.702 
2686.729 
2686.756 
2686.784 
2686.811 
2686.838 
2686.865 
2686.893 
2686.920 
2686.947 
2686.975 
2687.002 
2687.029 
2687.057 
2687.084 
2687.111 
2687.139 
2687.166 
2687.193 
2687.221 
2687.248 
2687.275 
2687.303 
2687.330 
2687.357 
2687.385 
2687.412 
2687.439 
2687.466 
2687.494 
2687.521 
2687.548 
2687.576 
2687.603 
2687.630 
2687.658 
2687.685 
2687.712 
2687.739 
2687.767 
2687.794 
2687.821 
2687.849 
2687.876 
2687.903 
2687.931 
2687.958 
2687.985 
2688.012 
2688.040 
2688.067 
2688.094 
2688.122 
2688.149 
2688.176 
2688.203 
2688.231 
2688.258 
2688.285 
2688.312 
2688.340 
2688.367 
2688.394 
2688.422 
2688.449 
2688.476 
2688.503 
2688.531 
2688.558 
2688.585 
2688.612 
2688.640 
2688.667 
2688.694 
2688.722 
2688.749 
2688.776 
2688.803 
2688.831 
2688.858 
2688.885 
2688.912 
2688.940 
2688.967 
2688.994 
2689.021 
2689.049 
2689.076 
2689.103 
2689.130 
2689.158 
2689.185 
2689.212 
2689.239 
2689.267 
2689.294 
2689.321 
2689.348 
2689.376 
2689.403 
2689.430 
2689.457 
2689.484 
2689.512 
2689.539 
2689.566 
2689.593 
2689.621 
2689.648 
2689.675 
2689.702 
2689.730 
2689.757 
2689.784 
2689.811 
2689.838 
2689.866 
2689.893 
2689.920 
2689.947 
2689.975 
2690.002 
2690.029 
2690.056 
2690.083 
2690.111 
2690.138 
2690.165 
2690.192 
2690.220 
2690.247 
2690.274 
2690.301 
2690.328 
2690.356 
2690.383 
2690.410 
2690.437 
2690.464 
2690.492 
2690.519 
2690.546 
2690.573 
2690.600 
2690.628 
2690.655 
2690.682 
2690.709 
2690.736 
2690.764 
2690.791 
2690.818 
2690.845 
2690.872 
2690.899 
2690.927 
2690.954 
2690.981 
2691.008 
2691.035 
2691.063 
2691.090 
2691.117 
2691.144 
2691.171 
2691.198 
2691.226 
2691.253 
2691.280 
2691.307 
2691.334 
2691.361 
2691.389 
2691.416 
2691.443 
2691.470 
2691.497 
2691.524 
2691.552 
2691.579 
2691.606 
2691.633 
2691.660 
2691.687 
2691.715 
2691.742 
2691.769 
2691.796 
2691.823 
2691.850 
2691.878 
2691.905 
2691.932 
2691.959 
2691.986 
2692.013 
2692.040 
2692.068 
2692.095 
2692.122 
2692.149 
2692.176 
2692.203 
2692.230 
2692.258 
2692.285 
2692.312 
2692.339 
2692.366 
2692.393 
2692.420 
2692.447 
2692.475 
2692.502 
2692.529 
2692.556 
2692.583 
2692.610 
2692.637 
2692.664 
2692.692 
2692.719 
2692.746 
2692.773 
2692.800 
2692.827 
2692.854 
2692.881 
2692.909 
2692.936 
2692.963 
2692.990 
2693.017 
2693.044 
2693.071 
2693.098 
2693.125 
2693.153 
2693.180 
2693.207 
2693.234 
2693.261 
2693.288 
2693.315 
2693.342 
2693.369 
2693.396 
2693.424 
2693.451 
2693.478 
2693.505 
2693.532 
2693.559 
2693.586 
2693.613 
2693.640 
2693.667 
2693.694 
2693.722 
2693.749 
2693.776 
2693.803 
2693.830 
2693.857 
2693.884 
2693.911 
2693.938 
2693.965 
2693.992 
2694.019 
2694.047 
2694.074 
2694.101 
2694.128 
2694.155 
2694.182 
2694.209 
2694.236 
2694.263 
2694.290 
2694.317 
2694.344 
2694.371 
2694.398 
2694.426 
2694.453 
2694.480 
2694.507 
2694.534 
2694.561 
2694.588 
2694.615 
2694.642 
2694.669 
2694.696 
2694.723 
2694.750 
2694.777 
2694.804 
2694.831 
2694.858 
2694.885 
2694.912 
2694.939 
2694.967 
2694.994 
2695.021 
2695.048 
2695.075 
2695.102 
2695.129 
2695.156 
2695.183 
2695.210 
2695.237 
2695.264 
2695.291 
2695.318 
2695.345 
2695.372 
2695.399 
2695.426 
2695.453 
2695.480 
2695.507 
2695.534 
2695.561 
2695.588 
2695.615 
2695.642 
2695.669 
2695.696 
2695.723 
2695.750 
2695.777 
2695.804 
2695.831 
2695.858 
2695.885 
2695.912 
2695.939 
2695.966 
2695.993 
2696.020 
2696.047 
2696.074 
2696.101 
2696.128 
2696.155 
2696.182 
2696.209 
2696.236 
2696.263 
2696.290 
2696.317 
2696.344 
2696.371 
2696.398 
2696.425 
2696.452 
2696.479 
2696.506 
2696.533 
2696.560 
2696.587 
2696.614 
2696.641 
2696.668 
2696.695 
2696.722 
2696.749 
2696.776 
2696.803 
2696.830 
2696.857 
2696.884 
2696.911 
2696.938 
2696.965 
2696.992 
2697.019 
2697.046 
2697.073 
2697.100 
2697.127 
2697.154 
2697.181 
2697.208 
2697.235 
2697.262 
2697.289 
2697.316 
2697.343 
2697.370 
2697.396 
2697.423 
2697.450 
2697.477 
2697.504 
2697.531 
2697.558 
2697.585 
2697.612 
2697.639 
2697.666 
2697.693 
2697.720 
2697.747 
2697.774 
2697.801 
2697.828 
2697.855 
2697.882 
2697.908 
2697.935 
2697.962 
2697.989 
2698.016 
2698.043 
2698.070 
2698.097 
2698.124 
2698.151 
2698.178 
2698.205 
2698.232 
2698.259 
2698.286 
2698.312 
2698.339 
2698.366 
2698.393 
2698.420 
2698.447 
2698.474 
2698.501 
2698.528 
2698.555 
2698.582 
2698.609 
2698.635 
2698.662 
2698.689 
2698.716 
2698.743 
2698.770 
2698.797 
2698.824 
2698.851 
2698.878 
2698.905 
2698.931 
2698.958 
2698.985 
2699.012 
2699.039 
2699.066 
2699.093 
2699.120 
2699.147 
2699.173 
2699.200 
2699.227 
2699.254 
2699.281 
2699.308 
2699.335 
2699.362 
2699.389 
2699.415 
2699.442 
2699.469 
2699.496 
2699.523 
2699.550 
2699.577 
2699.604 
2699.631 
2699.657 
2699.684 
2699.711 
2699.738 
2699.765 
2699.792 
2699.819 
2699.846 
2699.872 
2699.899 
2699.926 
2699.953 
2699.980 
2700.007 
2700.034 
2700.060 
2700.087 
2700.114 
2700.141 
2700.168 
2700.195 
2700.222 
2700.248 
2700.275 
2700.302 
2700.329 
2700.356 
2700.383 
2700.410 
2700.436 
2700.463 
2700.490 
2700.517 
2700.544 
2700.571 
2700.597 
2700.624 
2700.651 
2700.678 
2700.705 
2700.732 
2700.759 
2700.785 
2700.812 
2700.839 
2700.866 
2700.893 
2700.920 
2700.946 
2700.973 
2701.000 
2701.027 
2701.054 
2701.080 
2701.107 
2701.134 
2701.161 
2701.188 
2701.215 
2701.241 
2701.268 
2701.295 
2701.322 
2701.349 
2701.376 
2701.402 
2701.429 
2701.456 
2701.483 
2701.510 
2701.536 
2701.563 
2701.590 
2701.617 
2701.644 
2701.670 
2701.697 
2701.724 
2701.751 
2701.778 
2701.804 
2701.831 
2701.858 
2701.885 
2701.912 
2701.938 
2701.965 
2701.992 
2702.019 
2702.046 
2702.072 
2702.099 
2702.126 
2702.153 
2702.180 
2702.206 
2702.233 
2702.260 
2702.287 
2702.313 
2702.340 
2702.367 
2702.394 
2702.421 
2702.447 
2702.474 
2702.501 
2702.528 
2702.554 
2702.581 
2702.608 
2702.635 
2702.662 
2702.688 
2702.715 
2702.742 
2702.769 
2702.795 
2702.822 
2702.849 
2702.876 
2702.902 
2702.929 
2702.956 
2702.983 
2703.009 
2703.036 
2703.063 
2703.090 
2703.116 
2703.143 
2703.170 
2703.197 
2703.223 
2703.250 
2703.277 
2703.304 
2703.330 
2703.357 
2703.384 
2703.411 
2703.437 
2703.464 
2703.491 
2703.518 
2703.544 
2703.571 
2703.598 
2703.625 
2703.651 
2703.678 
2703.705 
2703.732 
2703.758 
2703.785 
2703.812 
2703.838 
2703.865 
2703.892 
2703.919 
2703.945 
2703.972 
2703.999 
2704.025 
2704.052 
2704.079 
2704.106 
2704.132 
2704.159 
2704.186 
2704.212 
2704.239 
2704.266 
2704.293 
2704.319 
2704.346 
2704.373 
2704.399 
2704.426 
2704.453 
2704.480 
2704.506 
2704.533 
2704.560 
2704.586 
2704.613 
2704.640 
2704.666 
2704.693 
2704.720 
2704.747 
2704.773 
2704.800 
2704.827 
2704.853 
2704.880 
2704.907 
2704.933 
2704.960 
2704.987 
2705.013 
2705.040 
2705.067 
2705.094 
2705.120 
2705.147 
2705.174 
2705.200 
2705.227 
2705.254 
2705.280 
2705.307 
2705.334 
2705.360 
2705.387 
2705.414 
2705.440 
2705.467 
2705.494 
2705.520 
2705.547 
2705.574 
2705.600 
2705.627 
2705.654 
2705.680 
2705.707 
2705.734 
2705.760 
2705.787 
2705.814 
2705.840 
2705.867 
2705.894 
2705.920 
2705.947 
2705.973 
2706.000 
2706.027 
2706.053 
2706.080 
2706.107 
2706.133 
2706.160 
2706.187 
2706.213 
2706.240 
2706.267 
2706.293 
2706.320 
2706.347 
2706.373 
2706.400 
2706.426 
2706.453 
2706.480 
2706.506 
2706.533 
2706.560 
2706.586 
2706.613 
2706.639 
2706.666 
2706.693 
2706.719 
2706.746 
2706.773 
2706.799 
2706.826 
2706.852 
2706.879 
2706.906 
2706.932 
2706.959 
2706.986 
2707.012 
2707.039 
2707.065 
2707.092 
2707.119 
2707.145 
2707.172 
2707.198 
2707.225 
2707.252 
2707.278 
2707.305 
2707.331 
2707.358 
2707.385 
2707.411 
2707.438 
2707.464 
2707.491 
2707.518 
2707.544 
2707.571 
2707.597 
2707.624 
2707.651 
2707.677 
2707.704 
2707.730 
2707.757 
2707.783 
2707.810 
2707.837 
2707.863 
2707.890 
2707.916 
2707.943 
2707.970 
2707.996 
2708.023 
2708.049 
2708.076 
2708.102 
2708.129 
2708.156 
2708.182 
2708.209 
2708.235 
2708.262 
2708.288 
2708.315 
2708.342 
2708.368 
2708.395 
2708.421 
2708.448 
2708.474 
2708.501 
2708.528 
2708.554 
2708.581 
2708.607 
2708.634 
2708.660 
2708.687 
2708.713 
2708.740 
2708.766 
2708.793 
2708.820 
2708.846 
2708.873 
2708.899 
2708.926 
2708.952 
2708.979 
2709.005 
2709.032 
2709.058 
2709.085 
2709.112 
2709.138 
2709.165 
2709.191 
2709.218 
2709.244 
2709.271 
2709.297 
2709.324 
2709.350 
2709.377 
2709.403 
2709.430 
2709.456 
2709.483 
2709.510 
2709.536 
2709.563 
2709.589 
2709.616 
2709.642 
2709.669 
2709.695 
2709.722 
2709.748 
2709.775 
2709.801 
2709.828 
2709.854 
2709.881 
2709.907 
2709.934 
2709.960 
2709.987 
2710.013 
2710.040 
2710.066 
2710.093 
2710.119 
2710.146 
2710.172 
2710.199 
2710.225 
2710.252 
2710.278 
2710.305 
2710.331 
2710.358 
2710.384 
2710.411 
2710.437 
2710.464 
2710.490 
2710.517 
2710.543 
2710.570 
2710.596 
2710.623 
2710.649 
2710.676 
2710.702 
2710.729 
2710.755 
2710.782 
2710.808 
2710.834 
2710.861 
2710.887 
2710.914 
2710.940 
2710.967 
2710.993 
2711.020 
2711.046 
2711.073 
2711.099 
2711.126 
2711.152 
2711.179 
2711.205 
2711.231 
2711.258 
2711.284 
2711.311 
2711.337 
2711.364 
2711.390 
2711.417 
2711.443 
2711.470 
2711.496 
2711.523 
2711.549 
2711.575 
2711.602 
2711.628 
2711.655 
2711.681 
2711.708 
2711.734 
2711.761 
2711.787 
2711.813 
2711.840 
2711.866 
2711.893 
2711.919 
2711.946 
2711.972 
2711.998 
2712.025 
2712.051 
2712.078 
2712.104 
2712.131 
2712.157 
2712.183 
2712.210 
2712.236 
2712.263 
2712.289 
2712.316 
2712.342 
2712.368 
2712.395 
2712.421 
2712.448 
2712.474 
2712.501 
2712.527 
2712.553 
2712.580 
2712.606 
2712.633 
2712.659 
2712.685 
2712.712 
2712.738 
2712.765 
2712.791 
2712.817 
2712.844 
2712.870 
2712.897 
2712.923 
2712.949 
2712.976 
2713.002 
2713.029 
2713.055 
2713.081 
2713.108 
2713.134 
2713.161 
2713.187 
2713.213 
2713.240 
2713.266 
2713.293 
2713.319 
2713.345 
2713.372 
2713.398 
2713.424 
2713.451 
2713.477 
2713.504 
2713.530 
2713.556 
2713.583 
2713.609 
2713.635 
2713.662 
2713.688 
2713.715 
2713.741 
2713.767 
2713.794 
2713.820 
2713.846 
2713.873 
2713.899 
2713.926 
2713.952 
2713.978 
2714.005 
2714.031 
2714.057 
2714.084 
2714.110 
2714.136 
2714.163 
2714.189 
2714.215 
2714.242 
2714.268 
2714.295 
2714.321 
2714.347 
2714.374 
2714.400 
2714.426 
2714.453 
2714.479 
2714.505 
2714.532 
2714.558 
2714.584 
2714.611 
2714.637 
2714.663 
2714.690 
2714.716 
2714.742 
2714.769 
2714.795 
2714.821 
2714.848 
2714.874 
2714.900 
2714.927 
2714.953 
2714.979 
2715.006 
2715.032 
2715.058 
2715.085 
2715.111 
2715.137 
2715.164 
2715.190 
2715.216 
2715.243 
2715.269 
2715.295 
2715.321 
2715.348 
2715.374 
2715.400 
2715.427 
2715.453 
2715.479 
2715.506 
2715.532 
2715.558 
2715.585 
2715.611 
2715.637 
2715.663 
2715.690 
2715.716 
2715.742 
2715.769 
2715.795 
2715.821 
2715.848 
2715.874 
2715.900 
2715.926 
2715.953 
2715.979 
2716.005 
2716.032 
2716.058 
2716.084 
2716.110 
2716.137 
2716.163 
2716.189 
2716.216 
2716.242 
2716.268 
2716.294 
2716.321 
2716.347 
2716.373 
2716.399 
2716.426 
2716.452 
2716.478 
2716.505 
2716.531 
2716.557 
2716.583 
2716.610 
2716.636 
2716.662 
2716.688 
2716.715 
2716.741 
2716.767 
2716.793 
2716.820 
2716.846 
2716.872 
2716.898 
2716.925 
2716.951 
2716.977 
2717.003 
2717.030 
2717.056 
2717.082 
2717.108 
2717.135 
2717.161 
2717.187 
2717.213 
2717.240 
2717.266 
2717.292 
2717.318 
2717.345 
2717.371 
2717.397 
2717.423 
2717.450 
2717.476 
2717.502 
2717.528 
2717.555 
2717.581 
2717.607 
2717.633 
2717.659 
2717.686 
2717.712 
2717.738 
2717.764 
2717.791 
2717.817 
2717.843 
2717.869 
2717.895 
2717.922 
2717.948 
2717.974 
2718.000 
2718.027 
2718.053 
2718.079 
2718.105 
2718.131 
2718.158 
2718.184 
2718.210 
2718.236 
2718.262 
2718.289 
2718.315 
2718.341 
2718.367 
2718.393 
2718.420 
2718.446 
2718.472 
2718.498 
2718.524 
2718.551 
2718.577 
2718.603 
2718.629 
2718.655 
2718.682 
2718.708 
2718.734 
2718.760 
2718.786 
2718.813 
2718.839 
2718.865 
2718.891 
2718.917 
2718.943 
2718.970 
2718.996 
2719.022 
2719.048 
2719.074 
2719.101 
2719.127 
2719.153 
2719.179 
2719.205 
2719.231 
2719.258 
2719.284 
2719.310 
2719.336 
2719.362 
2719.388 
2719.415 
2719.441 
2719.467 
2719.493 
2719.519 
2719.545 
2719.572 
2719.598 
2719.624 
2719.650 
2719.676 
2719.702 
2719.728 
2719.755 
2719.781 
2719.807 
2719.833 
2719.859 
2719.885 
2719.912 
2719.938 
2719.964 
2719.990 
2720.016 
2720.042 
2720.068 
2720.095 
2720.121 
2720.147 
2720.173 
2720.199 
2720.225 
2720.251 
2720.277 
2720.304 
2720.330 
2720.356 
2720.382 
2720.408 
2720.434 
2720.460 
2720.486 
2720.513 
2720.539 
2720.565 
2720.591 
2720.617 
2720.643 
2720.669 
2720.695 
2720.722 
2720.748 
2720.774 
2720.800 
2720.826 
2720.852 
2720.878 
2720.904 
2720.930 
2720.957 
2720.983 
2721.009 
2721.035 
2721.061 
2721.087 
2721.113 
2721.139 
2721.165 
2721.191 
2721.218 
2721.244 
2721.270 
2721.296 
2721.322 
2721.348 
2721.374 
2721.400 
2721.426 
2721.452 
2721.479 
2721.505 
2721.531 
2721.557 
2721.583 
2721.609 
2721.635 
2721.661 
2721.687 
2721.713 
2721.739 
2721.765 
2721.792 
2721.818 
2721.844 
2721.870 
2721.896 
2721.922 
2721.948 
2721.974 
2722.000 
2722.026 
2722.052 
2722.078 
2722.104 
2722.130 
2722.156 
2722.183 
2722.209 
2722.235 
2722.261 
2722.287 
2722.313 
2722.339 
2722.365 
2722.391 
2722.417 
2722.443 
2722.469 
2722.495 
2722.521 
2722.547 
2722.573 
2722.599 
2722.625 
2722.652 
2722.678 
2722.704 
2722.730 
2722.756 
2722.782 
2722.808 
2722.834 
2722.860 
2722.886 
2722.912 
2722.938 
2722.964 
2722.990 
2723.016 
2723.042 
2723.068 
2723.094 
2723.120 
2723.146 
2723.172 
2723.198 
2723.224 
2723.250 
2723.276 
2723.302 
2723.328 
2723.354 
2723.380 
2723.406 
2723.432 
2723.458 
2723.484 
2723.510 
2723.536 
2723.562 
2723.589 
2723.615 
2723.641 
2723.667 
2723.693 
2723.719 
2723.745 
2723.771 
2723.797 
2723.823 
2723.849 
2723.875 
2723.901 
2723.927 
2723.953 
2723.979 
2724.005 
2724.031 
2724.057 
2724.083 
2724.109 
2724.135 
2724.161 
2724.186 
2724.212 
2724.238 
2724.264 
2724.290 
2724.316 
2724.342 
2724.368 
2724.394 
2724.420 
2724.446 
2724.472 
2724.498 
2724.524 
2724.550 
2724.576 
2724.602 
2724.628 
2724.654 
2724.680 
2724.706 
2724.732 
2724.758 
2724.784 
2724.810 
2724.836 
2724.862 
2724.888 
2724.914 
2724.940 
2724.966 
2724.992 
2725.018 
2725.044 
2725.070 
2725.096 
2725.121 
2725.147 
2725.173 
2725.199 
2725.225 
2725.251 
2725.277 
2725.303 
2725.329 
2725.355 
2725.381 
2725.407 
2725.433 
2725.459 
2725.485 
2725.511 
2725.537 
2725.563 
2725.588 
2725.614 
2725.640 
2725.666 
2725.692 
2725.718 
2725.744 
2725.770 
2725.796 
2725.822 
2725.848 
2725.874 
2725.900 
2725.926 
2725.951 
2725.977 
2726.003 
2726.029 
2726.055 
2726.081 
2726.107 
2726.133 
2726.159 
2726.185 
2726.211 
2726.237 
2726.263 
2726.288 
2726.314 
2726.340 
2726.366 
2726.392 
2726.418 
2726.444 
2726.470 
2726.496 
2726.522 
2726.547 
2726.573 
2726.599 
2726.625 
2726.651 
2726.677 
2726.703 
2726.729 
2726.755 
2726.781 
2726.806 
2726.832 
2726.858 
2726.884 
2726.910 
2726.936 
2726.962 
2726.988 
2727.014 
2727.039 
2727.065 
2727.091 
2727.117 
2727.143 
2727.169 
2727.195 
2727.221 
2727.246 
2727.272 
2727.298 
2727.324 
2727.350 
2727.376 
2727.402 
2727.428 
2727.453 
2727.479 
2727.505 
2727.531 
2727.557 
2727.583 
2727.609 
2727.635 
2727.660 
2727.686 
2727.712 
2727.738 
2727.764 
2727.790 
2727.816 
2727.841 
2727.867 
2727.893 
2727.919 
2727.945 
2727.971 
2727.996 
2728.022 
2728.048 
2728.074 
2728.100 
2728.126 
2728.152 
2728.177 
2728.203 
2728.229 
2728.255 
2728.281 
2728.307 
2728.332 
2728.358 
2728.384 
2728.410 
2728.436 
2728.462 
2728.487 
2728.513 
2728.539 
2728.565 
2728.591 
2728.617 
2728.642 
2728.668 
2728.694 
2728.720 
2728.746 
2728.771 
2728.797 
2728.823 
2728.849 
2728.875 
2728.901 
2728.926 
2728.952 
2728.978 
2729.004 
2729.030 
2729.055 
2729.081 
2729.107 
2729.133 
2729.159 
2729.184 
2729.210 
2729.236 
2729.262 
2729.288 
2729.313 
2729.339 
2729.365 
2729.391 
2729.417 
2729.442 
2729.468 
2729.494 
2729.520 
2729.546 
2729.571 
2729.597 
2729.623 
2729.649 
2729.675 
2729.700 
2729.726 
2729.752 
2729.778 
2729.803 
2729.829 
2729.855 
2729.881 
2729.907 
2729.932 
2729.958 
2729.984 
2730.010 
2730.035 
2730.061 
2730.087 
2730.113 
2730.139 
2730.164 
2730.190 
2730.216 
2730.242 
2730.267 
2730.293 
2730.319 
2730.345 
2730.370 
2730.396 
2730.422 
2730.448 
2730.473 
2730.499 
2730.525 
2730.551 
2730.576 
2730.602 
2730.628 
2730.654 
2730.679 
2730.705 
2730.731 
2730.757 
2730.782 
2730.808 
2730.834 
2730.860 
2730.885 
2730.911 
2730.937 
2730.963 
2730.988 
2731.014 
2731.040 
2731.066 
2731.091 
2731.117 
2731.143 
2731.169 
2731.194 
2731.220 
2731.246 
2731.271 
2731.297 
2731.323 
2731.349 
2731.374 
2731.400 
2731.426 
2731.452 
2731.477 
2731.503 
2731.529 
2731.554 
2731.580 
2731.606 
2731.632 
2731.657 
2731.683 
2731.709 
2731.734 
2731.760 
2731.786 
2731.811 
2731.837 
2731.863 
2731.889 
2731.914 
2731.940 
2731.966 
2731.991 
2732.017 
2732.043 
2732.069 
2732.094 
2732.120 
2732.146 
2732.171 
2732.197 
2732.223 
2732.248 
2732.274 
2732.300 
2732.325 
2732.351 
2732.377 
2732.402 
2732.428 
2732.454 
2732.480 
2732.505 
2732.531 
2732.557 
2732.582 
2732.608 
2732.634 
2732.659 
2732.685 
2732.711 
2732.736 
2732.762 
2732.788 
2732.813 
2732.839 
2732.865 
2732.890 
2732.916 
2732.942 
2732.967 
2732.993 
2733.019 
2733.044 
2733.070 
2733.096 
2733.121 
2733.147 
2733.173 
2733.198 
2733.224 
2733.250 
2733.275 
2733.301 
2733.327 
2733.352 
2733.378 
2733.403 
2733.429 
2733.455 
2733.480 
2733.506 
2733.532 
2733.557 
2733.583 
2733.609 
2733.634 
2733.660 
2733.686 
2733.711 
2733.737 
2733.762 
2733.788 
2733.814 
2733.839 
2733.865 
2733.891 
2733.916 
2733.942 
2733.967 
2733.993 
2734.019 
2734.044 
2734.070 
2734.096 
2734.121 
2734.147 
2734.172 
2734.198 
2734.224 
2734.249 
2734.275 
2734.301 
2734.326 
2734.352 
2734.377 
2734.403 
2734.429 
2734.454 
2734.480 
2734.505 
2734.531 
2734.557 
2734.582 
2734.608 
2734.633 
2734.659 
2734.685 
2734.710 
2734.736 
2734.761 
2734.787 
2734.813 
2734.838 
2734.864 
2734.889 
2734.915 
2734.941 
2734.966 
2734.992 
2735.017 
2735.043 
2735.068 
2735.094 
2735.120 
2735.145 
2735.171 
2735.196 
2735.222 
2735.248 
2735.273 
2735.299 
2735.324 
2735.350 
2735.375 
2735.401 
2735.427 
2735.452 
2735.478 
2735.503 
2735.529 
2735.554 
2735.580 
2735.606 
2735.631 
2735.657 
2735.682 
2735.708 
2735.733 
2735.759 
2735.785 
2735.810 
2735.836 
2735.861 
2735.887 
2735.912 
2735.938 
2735.963 
2735.989 
2736.014 
2736.040 
2736.066 
2736.091 
2736.117 
2736.142 
2736.168 
2736.193 
2736.219 
2736.244 
2736.270 
2736.295 
2736.321 
2736.347 
2736.372 
2736.398 
2736.423 
2736.449 
2736.474 
2736.500 
2736.525 
2736.551 
2736.576 
2736.602 
2736.627 
2736.653 
2736.678 
2736.704 
2736.729 
2736.755 
2736.781 
2736.806 
2736.832 
2736.857 
2736.883 
2736.908 
2736.934 
2736.959 
2736.985 
2737.010 
2737.036 
2737.061 
2737.087 
2737.112 
2737.138 
2737.163 
2737.189 
2737.214 
2737.240 
2737.265 
2737.291 
2737.316 
2737.342 
2737.367 
2737.393 
2737.418 
2737.444 
2737.469 
2737.495 
2737.520 
2737.546 
2737.571 
2737.597 
2737.622 
2737.648 
2737.673 
2737.699 
2737.724 
2737.750 
2737.775 
2737.801 
2737.826 
2737.852 
2737.877 
2737.903 
2737.928 
2737.953 
2737.979 
2738.004 
2738.030 
2738.055 
2738.081 
2738.106 
2738.132 
2738.157 
2738.183 
2738.208 
2738.234 
2738.259 
2738.285 
2738.310 
2738.336 
2738.361 
2738.386 
2738.412 
2738.437 
2738.463 
2738.488 
2738.514 
2738.539 
2738.565 
2738.590 
2738.616 
2738.641 
2738.666 
2738.692 
2738.717 
2738.743 
2738.768 
2738.794 
2738.819 
2738.845 
2738.870 
2738.895 
2738.921 
2738.946 
2738.972 
2738.997 
2739.023 
2739.048 
2739.074 
2739.099 
2739.124 
2739.150 
2739.175 
2739.201 
2739.226 
2739.252 
2739.277 
2739.302 
2739.328 
2739.353 
2739.379 
2739.404 
2739.430 
2739.455 
2739.480 
2739.506 
2739.531 
2739.557 
2739.582 
2739.607 
2739.633 
2739.658 
2739.684 
2739.709 
2739.735 
2739.760 
2739.785 
2739.811 
2739.836 
2739.862 
2739.887 
2739.912 
2739.938 
2739.963 
2739.989 
