# Wavelength table for hrs,echb,32
1729.000 
1729.019 
1729.038 
1729.057 
1729.076 
1729.095 
1729.115 
1729.134 
1729.153 
1729.172 
1729.191 
1729.210 
1729.229 
1729.248 
1729.267 
1729.286 
1729.306 
1729.325 
1729.344 
1729.363 
1729.382 
1729.401 
1729.420 
1729.439 
1729.458 
1729.477 
1729.496 
1729.515 
1729.535 
1729.554 
1729.573 
1729.592 
1729.611 
1729.630 
1729.649 
1729.668 
1729.687 
1729.706 
1729.725 
1729.744 
1729.763 
1729.783 
1729.802 
1729.821 
1729.840 
1729.859 
1729.878 
1729.897 
1729.916 
1729.935 
1729.954 
1729.973 
1729.992 
1730.011 
1730.030 
1730.050 
1730.069 
1730.088 
1730.107 
1730.126 
1730.145 
1730.164 
1730.183 
1730.202 
1730.221 
1730.240 
1730.259 
1730.278 
1730.297 
1730.316 
1730.335 
1730.355 
1730.374 
1730.393 
1730.412 
1730.431 
1730.450 
1730.469 
1730.488 
1730.507 
1730.526 
1730.545 
1730.564 
1730.583 
1730.602 
1730.621 
1730.640 
1730.659 
1730.678 
1730.697 
1730.716 
1730.736 
1730.755 
1730.774 
1730.793 
1730.812 
1730.831 
1730.850 
1730.869 
1730.888 
1730.907 
1730.926 
1730.945 
1730.964 
1730.983 
1731.002 
1731.021 
1731.040 
1731.059 
1731.078 
1731.097 
1731.116 
1731.135 
1731.154 
1731.173 
1731.192 
1731.211 
1731.230 
1731.249 
1731.268 
1731.287 
1731.307 
1731.326 
1731.345 
1731.364 
1731.383 
1731.402 
1731.421 
1731.440 
1731.459 
1731.478 
1731.497 
1731.516 
1731.535 
1731.554 
1731.573 
1731.592 
1731.611 
1731.630 
1731.649 
1731.668 
1731.687 
1731.706 
1731.725 
1731.744 
1731.763 
1731.782 
1731.801 
1731.820 
1731.839 
1731.858 
1731.877 
1731.896 
1731.915 
1731.934 
1731.953 
1731.972 
1731.991 
1732.010 
1732.029 
1732.048 
1732.067 
1732.086 
1732.105 
1732.124 
1732.143 
1732.162 
1732.181 
1732.200 
1732.219 
1732.238 
1732.257 
1732.276 
1732.295 
1732.314 
1732.333 
1732.352 
1732.371 
1732.390 
1732.409 
1732.428 
1732.447 
1732.466 
1732.485 
1732.504 
1732.523 
1732.542 
1732.561 
1732.580 
1732.599 
1732.618 
1732.637 
1732.656 
1732.675 
1732.694 
1732.713 
1732.732 
1732.751 
1732.770 
1732.788 
1732.807 
1732.826 
1732.845 
1732.864 
1732.883 
1732.902 
1732.921 
1732.940 
1732.959 
1732.978 
1732.997 
1733.016 
1733.035 
1733.054 
1733.073 
1733.092 
1733.111 
1733.130 
1733.149 
1733.168 
1733.187 
1733.206 
1733.225 
1733.244 
1733.263 
1733.282 
1733.301 
1733.320 
1733.339 
1733.357 
1733.376 
1733.395 
1733.414 
1733.433 
1733.452 
1733.471 
1733.490 
1733.509 
1733.528 
1733.547 
1733.566 
1733.585 
1733.604 
1733.623 
1733.642 
1733.661 
1733.680 
1733.699 
1733.718 
1733.736 
1733.755 
1733.774 
1733.793 
1733.812 
1733.831 
1733.850 
1733.869 
1733.888 
1733.907 
1733.926 
1733.945 
1733.964 
1733.983 
1734.002 
1734.021 
1734.039 
1734.058 
1734.077 
1734.096 
1734.115 
1734.134 
1734.153 
1734.172 
1734.191 
1734.210 
1734.229 
1734.248 
1734.267 
1734.286 
1734.304 
1734.323 
1734.342 
1734.361 
1734.380 
1734.399 
1734.418 
1734.437 
1734.456 
1734.475 
1734.494 
1734.513 
1734.532 
1734.550 
1734.569 
1734.588 
1734.607 
1734.626 
1734.645 
1734.664 
1734.683 
1734.702 
1734.721 
1734.740 
1734.759 
1734.777 
1734.796 
1734.815 
1734.834 
1734.853 
1734.872 
1734.891 
1734.910 
1734.929 
1734.948 
1734.966 
1734.985 
1735.004 
1735.023 
1735.042 
1735.061 
1735.080 
1735.099 
1735.118 
1735.137 
1735.155 
1735.174 
1735.193 
1735.212 
1735.231 
1735.250 
1735.269 
1735.288 
1735.307 
1735.326 
1735.344 
1735.363 
1735.382 
1735.401 
1735.420 
1735.439 
1735.458 
1735.477 
1735.496 
1735.514 
1735.533 
1735.552 
1735.571 
1735.590 
1735.609 
1735.628 
1735.647 
1735.665 
1735.684 
1735.703 
1735.722 
1735.741 
1735.760 
1735.779 
1735.798 
1735.816 
1735.835 
1735.854 
1735.873 
1735.892 
1735.911 
1735.930 
1735.949 
1735.967 
1735.986 
1736.005 
1736.024 
1736.043 
1736.062 
1736.081 
1736.100 
1736.118 
1736.137 
1736.156 
1736.175 
1736.194 
1736.213 
1736.232 
1736.250 
1736.269 
1736.288 
1736.307 
1736.326 
1736.345 
1736.364 
1736.382 
1736.401 
1736.420 
1736.439 
1736.458 
1736.477 
1736.496 
1736.514 
1736.533 
1736.552 
1736.571 
1736.590 
1736.609 
1736.628 
1736.646 
1736.665 
1736.684 
1736.703 
1736.722 
1736.741 
1736.759 
1736.778 
1736.797 
1736.816 
1736.835 
1736.854 
1736.873 
1736.891 
1736.910 
1736.929 
1736.948 
1736.967 
1736.986 
1737.004 
1737.023 
1737.042 
1737.061 
1737.080 
1737.099 
1737.117 
1737.136 
1737.155 
1737.174 
1737.193 
1737.212 
1737.230 
1737.249 
1737.268 
1737.287 
1737.306 
1737.324 
1737.343 
1737.362 
1737.381 
1737.400 
1737.419 
1737.437 
1737.456 
1737.475 
1737.494 
1737.513 
1737.532 
1737.550 
1737.569 
1737.588 
1737.607 
1737.626 
1737.644 
1737.663 
1737.682 
1737.701 
1737.720 
1737.738 
1737.757 
1737.776 
1737.795 
1737.814 
1737.833 
1737.851 
1737.870 
1737.889 
1737.908 
1737.927 
1737.945 
1737.964 
1737.983 
1738.002 
1738.021 
1738.039 
1738.058 
1738.077 
1738.096 
1738.115 
1738.133 
1738.152 
1738.171 
1738.190 
1738.209 
1738.227 
1738.246 
1738.265 
1738.284 
1738.303 
1738.321 
1738.340 
1738.359 
1738.378 
1738.396 
1738.415 
1738.434 
1738.453 
1738.472 
1738.490 
1738.509 
1738.528 
1738.547 
1738.566 
1738.584 
1738.603 
1738.622 
1738.641 
1738.659 
1738.678 
1738.697 
1738.716 
1738.735 
1738.753 
1738.772 
1738.791 
1738.810 
1738.828 
1738.847 
1738.866 
1738.885 
1738.904 
1738.922 
1738.941 
1738.960 
1738.979 
1738.997 
1739.016 
1739.035 
1739.054 
1739.072 
1739.091 
1739.110 
1739.129 
1739.148 
1739.166 
1739.185 
1739.204 
1739.223 
1739.241 
1739.260 
1739.279 
1739.298 
1739.316 
1739.335 
1739.354 
1739.373 
1739.391 
1739.410 
1739.429 
1739.448 
1739.466 
1739.485 
1739.504 
1739.523 
1739.541 
1739.560 
1739.579 
1739.598 
1739.616 
1739.635 
1739.654 
1739.673 
1739.691 
1739.710 
1739.729 
1739.748 
1739.766 
1739.785 
1739.804 
1739.823 
1739.841 
1739.860 
1739.879 
1739.898 
1739.916 
1739.935 
1739.954 
1739.973 
1739.991 
1740.010 
1740.029 
1740.047 
1740.066 
1740.085 
1740.104 
1740.122 
1740.141 
1740.160 
1740.179 
1740.197 
1740.216 
1740.235 
1740.254 
1740.272 
1740.291 
1740.310 
1740.328 
1740.347 
1740.366 
1740.385 
1740.403 
1740.422 
1740.441 
1740.459 
1740.478 
1740.497 
1740.516 
1740.534 
1740.553 
1740.572 
1740.590 
1740.609 
1740.628 
1740.647 
1740.665 
1740.684 
1740.703 
1740.721 
1740.740 
1740.759 
1740.778 
1740.796 
1740.815 
1740.834 
1740.852 
1740.871 
1740.890 
1740.909 
1740.927 
1740.946 
1740.965 
1740.983 
1741.002 
1741.021 
1741.039 
1741.058 
1741.077 
1741.096 
1741.114 
1741.133 
1741.152 
1741.170 
1741.189 
1741.208 
1741.226 
1741.245 
1741.264 
1741.283 
1741.301 
1741.320 
1741.339 
1741.357 
1741.376 
1741.395 
1741.413 
1741.432 
1741.451 
1741.469 
1741.488 
1741.507 
1741.525 
1741.544 
1741.563 
1741.582 
1741.600 
1741.619 
1741.638 
1741.656 
1741.675 
1741.694 
1741.712 
1741.731 
1741.750 
1741.768 
1741.787 
1741.806 
1741.824 
1741.843 
1741.862 
1741.880 
1741.899 
1741.918 
1741.936 
1741.955 
1741.974 
1741.992 
1742.011 
1742.030 
1742.048 
1742.067 
1742.086 
1742.104 
1742.123 
1742.142 
1742.160 
1742.179 
1742.198 
1742.216 
1742.235 
1742.254 
1742.272 
1742.291 
1742.310 
1742.328 
1742.347 
1742.366 
1742.384 
1742.403 
1742.422 
1742.440 
1742.459 
1742.478 
1742.496 
1742.515 
1742.534 
1742.552 
1742.571 
1742.589 
1742.608 
1742.627 
1742.645 
1742.664 
1742.683 
1742.701 
1742.720 
1742.739 
1742.757 
1742.776 
1742.795 
1742.813 
1742.832 
1742.850 
1742.869 
1742.888 
1742.906 
1742.925 
1742.944 
1742.962 
1742.981 
1743.000 
1743.018 
1743.037 
1743.055 
1743.074 
1743.093 
1743.111 
1743.130 
1743.149 
1743.167 
1743.186 
1743.205 
1743.223 
1743.242 
1743.260 
1743.279 
1743.298 
1743.316 
1743.335 
1743.354 
1743.372 
1743.391 
1743.409 
1743.428 
1743.447 
1743.465 
1743.484 
1743.503 
1743.521 
1743.540 
1743.558 
1743.577 
1743.596 
1743.614 
1743.633 
1743.651 
1743.670 
1743.689 
1743.707 
1743.726 
1743.744 
1743.763 
1743.782 
1743.800 
1743.819 
1743.838 
1743.856 
1743.875 
1743.893 
1743.912 
1743.931 
1743.949 
1743.968 
1743.986 
1744.005 
1744.024 
1744.042 
1744.061 
1744.079 
1744.098 
1744.117 
1744.135 
1744.154 
1744.172 
1744.191 
1744.210 
1744.228 
1744.247 
1744.265 
1744.284 
1744.302 
1744.321 
1744.340 
1744.358 
1744.377 
1744.395 
1744.414 
1744.433 
1744.451 
1744.470 
1744.488 
1744.507 
1744.526 
1744.544 
1744.563 
1744.581 
1744.600 
1744.618 
1744.637 
1744.656 
1744.674 
1744.693 
1744.711 
1744.730 
1744.748 
1744.767 
1744.786 
1744.804 
1744.823 
1744.841 
1744.860 
1744.879 
1744.897 
1744.916 
1744.934 
1744.953 
1744.971 
1744.990 
1745.008 
1745.027 
1745.046 
1745.064 
1745.083 
1745.101 
1745.120 
1745.138 
1745.157 
1745.176 
1745.194 
1745.213 
1745.231 
1745.250 
1745.268 
1745.287 
1745.305 
1745.324 
1745.343 
1745.361 
1745.380 
1745.398 
1745.417 
1745.435 
1745.454 
1745.472 
1745.491 
1745.510 
1745.528 
1745.547 
1745.565 
1745.584 
1745.602 
1745.621 
1745.639 
1745.658 
1745.677 
1745.695 
1745.714 
1745.732 
1745.751 
1745.769 
1745.788 
1745.806 
1745.825 
1745.843 
1745.862 
1745.880 
1745.899 
1745.918 
1745.936 
1745.955 
1745.973 
1745.992 
1746.010 
1746.029 
1746.047 
1746.066 
1746.084 
1746.103 
1746.121 
1746.140 
1746.158 
1746.177 
1746.196 
1746.214 
1746.233 
1746.251 
1746.270 
1746.288 
1746.307 
1746.325 
1746.344 
1746.362 
1746.381 
1746.399 
1746.418 
1746.436 
1746.455 
1746.473 
1746.492 
1746.510 
1746.529 
1746.547 
1746.566 
1746.584 
1746.603 
1746.621 
1746.640 
1746.658 
1746.677 
1746.696 
1746.714 
1746.733 
1746.751 
1746.770 
1746.788 
1746.807 
1746.825 
1746.844 
1746.862 
1746.881 
1746.899 
1746.918 
1746.936 
1746.955 
1746.973 
1746.992 
1747.010 
1747.029 
1747.047 
1747.066 
1747.084 
1747.103 
1747.121 
1747.140 
1747.158 
1747.177 
1747.195 
1747.214 
1747.232 
1747.251 
1747.269 
1747.288 
1747.306 
1747.324 
1747.343 
1747.361 
1747.380 
1747.398 
1747.417 
1747.435 
1747.454 
1747.472 
1747.491 
1747.509 
1747.528 
1747.546 
1747.565 
1747.583 
1747.602 
1747.620 
1747.639 
1747.657 
1747.676 
1747.694 
1747.713 
1747.731 
1747.750 
1747.768 
1747.786 
1747.805 
1747.823 
1747.842 
1747.860 
1747.879 
1747.897 
1747.916 
1747.934 
1747.953 
1747.971 
1747.990 
1748.008 
1748.027 
1748.045 
1748.064 
1748.082 
1748.100 
1748.119 
1748.137 
1748.156 
1748.174 
1748.193 
1748.211 
1748.230 
1748.248 
1748.267 
1748.285 
1748.303 
1748.322 
1748.340 
1748.359 
1748.377 
1748.396 
1748.414 
1748.433 
1748.451 
1748.470 
1748.488 
1748.506 
1748.525 
1748.543 
1748.562 
1748.580 
1748.599 
1748.617 
1748.636 
1748.654 
1748.672 
1748.691 
1748.709 
1748.728 
1748.746 
1748.765 
1748.783 
1748.802 
1748.820 
1748.838 
1748.857 
1748.875 
1748.894 
1748.912 
1748.931 
1748.949 
1748.967 
1748.986 
1749.004 
1749.023 
1749.041 
1749.060 
1749.078 
1749.097 
1749.115 
1749.133 
1749.152 
1749.170 
1749.189 
1749.207 
1749.225 
1749.244 
1749.262 
1749.281 
1749.299 
1749.318 
1749.336 
1749.354 
1749.373 
1749.391 
1749.410 
1749.428 
1749.447 
1749.465 
1749.483 
1749.502 
1749.520 
1749.539 
1749.557 
1749.575 
1749.594 
1749.612 
1749.631 
1749.649 
1749.667 
1749.686 
1749.704 
1749.723 
1749.741 
1749.760 
1749.778 
1749.796 
1749.815 
1749.833 
1749.852 
1749.870 
1749.888 
1749.907 
1749.925 
1749.944 
1749.962 
1749.980 
1749.999 
1750.017 
1750.036 
1750.054 
1750.072 
1750.091 
1750.109 
1750.128 
1750.146 
1750.164 
1750.183 
1750.201 
1750.219 
1750.238 
1750.256 
1750.275 
1750.293 
1750.311 
1750.330 
1750.348 
1750.367 
1750.385 
1750.403 
1750.422 
1750.440 
1750.458 
1750.477 
1750.495 
1750.514 
1750.532 
1750.550 
1750.569 
1750.587 
1750.606 
1750.624 
1750.642 
1750.661 
1750.679 
1750.697 
1750.716 
1750.734 
1750.753 
1750.771 
1750.789 
1750.808 
1750.826 
1750.844 
1750.863 
1750.881 
1750.899 
1750.918 
1750.936 
1750.955 
1750.973 
1750.991 
1751.010 
1751.028 
1751.046 
1751.065 
1751.083 
1751.101 
1751.120 
1751.138 
1751.157 
1751.175 
1751.193 
1751.212 
1751.230 
1751.248 
1751.267 
1751.285 
1751.303 
1751.322 
1751.340 
1751.358 
1751.377 
1751.395 
1751.414 
1751.432 
1751.450 
1751.469 
1751.487 
1751.505 
1751.524 
1751.542 
1751.560 
1751.579 
1751.597 
1751.615 
1751.634 
1751.652 
1751.670 
1751.689 
1751.707 
1751.725 
1751.744 
1751.762 
1751.780 
1751.799 
1751.817 
1751.835 
1751.854 
1751.872 
1751.890 
1751.909 
1751.927 
1751.945 
1751.964 
1751.982 
1752.000 
1752.019 
1752.037 
1752.055 
1752.074 
1752.092 
1752.110 
1752.129 
1752.147 
1752.165 
1752.184 
1752.202 
1752.220 
1752.239 
1752.257 
1752.275 
1752.294 
1752.312 
1752.330 
1752.349 
1752.367 
1752.385 
1752.403 
1752.422 
1752.440 
1752.458 
1752.477 
1752.495 
1752.513 
1752.532 
1752.550 
1752.568 
1752.587 
1752.605 
1752.623 
1752.642 
1752.660 
1752.678 
1752.696 
1752.715 
1752.733 
1752.751 
1752.770 
1752.788 
1752.806 
1752.825 
1752.843 
1752.861 
1752.879 
1752.898 
1752.916 
1752.934 
1752.953 
1752.971 
1752.989 
1753.008 
1753.026 
1753.044 
1753.062 
1753.081 
1753.099 
1753.117 
1753.136 
1753.154 
1753.172 
1753.190 
1753.209 
1753.227 
1753.245 
1753.264 
1753.282 
1753.300 
1753.318 
1753.337 
1753.355 
1753.373 
1753.392 
1753.410 
1753.428 
1753.446 
1753.465 
1753.483 
1753.501 
1753.520 
1753.538 
1753.556 
1753.574 
1753.593 
1753.611 
1753.629 
1753.647 
1753.666 
1753.684 
1753.702 
1753.721 
1753.739 
1753.757 
1753.775 
1753.794 
1753.812 
1753.830 
1753.848 
1753.867 
1753.885 
1753.903 
1753.922 
1753.940 
1753.958 
1753.976 
1753.995 
1754.013 
1754.031 
1754.049 
1754.068 
1754.086 
1754.104 
1754.122 
1754.141 
1754.159 
1754.177 
1754.195 
1754.214 
1754.232 
1754.250 
1754.268 
1754.287 
1754.305 
1754.323 
1754.341 
1754.360 
1754.378 
1754.396 
1754.414 
1754.433 
1754.451 
1754.469 
1754.487 
1754.506 
1754.524 
1754.542 
1754.560 
1754.579 
1754.597 
1754.615 
1754.633 
1754.652 
1754.670 
1754.688 
1754.706 
1754.724 
1754.743 
1754.761 
1754.779 
1754.797 
1754.816 
1754.834 
1754.852 
1754.870 
1754.889 
1754.907 
1754.925 
1754.943 
1754.962 
1754.980 
1754.998 
1755.016 
1755.034 
1755.053 
1755.071 
1755.089 
1755.107 
1755.126 
1755.144 
1755.162 
1755.180 
1755.198 
1755.217 
1755.235 
1755.253 
1755.271 
1755.290 
1755.308 
1755.326 
1755.344 
1755.362 
1755.381 
1755.399 
1755.417 
1755.435 
1755.453 
1755.472 
1755.490 
1755.508 
1755.526 
1755.544 
1755.563 
1755.581 
1755.599 
1755.617 
1755.636 
1755.654 
1755.672 
1755.690 
1755.708 
1755.727 
1755.745 
1755.763 
1755.781 
1755.799 
1755.818 
1755.836 
1755.854 
1755.872 
1755.890 
1755.909 
1755.927 
1755.945 
1755.963 
1755.981 
1755.999 
1756.018 
1756.036 
1756.054 
1756.072 
1756.090 
1756.109 
1756.127 
1756.145 
1756.163 
1756.181 
1756.200 
1756.218 
1756.236 
1756.254 
1756.272 
1756.290 
1756.309 
1756.327 
1756.345 
1756.363 
1756.381 
1756.400 
1756.418 
1756.436 
1756.454 
1756.472 
1756.490 
1756.509 
1756.527 
1756.545 
1756.563 
1756.581 
1756.599 
1756.618 
1756.636 
1756.654 
1756.672 
1756.690 
1756.708 
1756.727 
1756.745 
1756.763 
1756.781 
1756.799 
1756.817 
1756.836 
1756.854 
1756.872 
1756.890 
1756.908 
1756.926 
1756.945 
1756.963 
1756.981 
1756.999 
1757.017 
1757.035 
1757.054 
1757.072 
1757.090 
1757.108 
1757.126 
1757.144 
1757.162 
1757.181 
1757.199 
1757.217 
1757.235 
1757.253 
1757.271 
1757.290 
1757.308 
1757.326 
1757.344 
1757.362 
1757.380 
1757.398 
1757.417 
1757.435 
1757.453 
1757.471 
1757.489 
1757.507 
1757.525 
1757.544 
1757.562 
1757.580 
1757.598 
1757.616 
1757.634 
1757.652 
1757.671 
1757.689 
1757.707 
1757.725 
1757.743 
1757.761 
1757.779 
1757.797 
1757.816 
1757.834 
1757.852 
1757.870 
1757.888 
1757.906 
1757.924 
1757.942 
1757.961 
1757.979 
1757.997 
1758.015 
1758.033 
1758.051 
1758.069 
1758.087 
1758.106 
1758.124 
1758.142 
1758.160 
1758.178 
1758.196 
1758.214 
1758.232 
1758.250 
1758.269 
1758.287 
1758.305 
1758.323 
1758.341 
1758.359 
1758.377 
1758.395 
1758.413 
1758.432 
1758.450 
1758.468 
1758.486 
1758.504 
1758.522 
1758.540 
1758.558 
1758.576 
1758.595 
1758.613 
1758.631 
1758.649 
1758.667 
1758.685 
1758.703 
1758.721 
1758.739 
1758.757 
1758.776 
1758.794 
1758.812 
1758.830 
1758.848 
1758.866 
1758.884 
1758.902 
1758.920 
1758.938 
1758.956 
1758.975 
1758.993 
1759.011 
1759.029 
1759.047 
1759.065 
1759.083 
1759.101 
1759.119 
1759.137 
1759.155 
1759.174 
1759.192 
1759.210 
1759.228 
1759.246 
1759.264 
1759.282 
1759.300 
1759.318 
1759.336 
1759.354 
1759.372 
1759.390 
1759.409 
1759.427 
1759.445 
1759.463 
1759.481 
1759.499 
1759.517 
1759.535 
1759.553 
1759.571 
1759.589 
1759.607 
1759.625 
1759.643 
1759.661 
1759.680 
1759.698 
1759.716 
1759.734 
1759.752 
1759.770 
1759.788 
1759.806 
1759.824 
1759.842 
1759.860 
1759.878 
1759.896 
1759.914 
1759.932 
1759.950 
1759.969 
1759.987 
1760.005 
1760.023 
1760.041 
1760.059 
1760.077 
1760.095 
1760.113 
1760.131 
1760.149 
1760.167 
1760.185 
1760.203 
1760.221 
1760.239 
1760.257 
1760.275 
1760.293 
1760.311 
1760.329 
1760.348 
1760.366 
1760.384 
1760.402 
1760.420 
1760.438 
1760.456 
1760.474 
1760.492 
1760.510 
1760.528 
1760.546 
1760.564 
1760.582 
1760.600 
1760.618 
1760.636 
1760.654 
1760.672 
1760.690 
1760.708 
1760.726 
1760.744 
1760.762 
1760.780 
1760.798 
1760.816 
1760.834 
1760.852 
1760.870 
1760.888 
1760.907 
1760.925 
1760.943 
1760.961 
1760.979 
1760.997 
1761.015 
1761.033 
1761.051 
1761.069 
1761.087 
1761.105 
1761.123 
1761.141 
1761.159 
1761.177 
1761.195 
1761.213 
1761.231 
1761.249 
1761.267 
1761.285 
1761.303 
1761.321 
1761.339 
1761.357 
1761.375 
1761.393 
1761.411 
1761.429 
1761.447 
1761.465 
1761.483 
1761.501 
1761.519 
1761.537 
1761.555 
1761.573 
1761.591 
1761.609 
1761.627 
1761.645 
1761.663 
1761.681 
1761.699 
1761.717 
1761.735 
1761.753 
1761.771 
1761.789 
1761.807 
1761.825 
1761.843 
1761.861 
1761.879 
1761.897 
1761.915 
1761.933 
1761.951 
1761.969 
1761.987 
1762.005 
1762.023 
1762.041 
1762.059 
1762.077 
1762.095 
1762.113 
1762.131 
1762.149 
1762.167 
1762.185 
1762.202 
1762.220 
1762.238 
1762.256 
1762.274 
1762.292 
1762.310 
1762.328 
1762.346 
1762.364 
1762.382 
1762.400 
1762.418 
1762.436 
1762.454 
1762.472 
1762.490 
1762.508 
1762.526 
1762.544 
1762.562 
1762.580 
1762.598 
1762.616 
1762.634 
1762.652 
1762.670 
1762.688 
1762.706 
1762.724 
1762.742 
1762.759 
1762.777 
1762.795 
1762.813 
1762.831 
1762.849 
1762.867 
1762.885 
1762.903 
1762.921 
1762.939 
1762.957 
1762.975 
1762.993 
1763.011 
1763.029 
1763.047 
1763.065 
1763.083 
1763.101 
1763.119 
1763.136 
1763.154 
1763.172 
1763.190 
1763.208 
1763.226 
1763.244 
1763.262 
1763.280 
1763.298 
1763.316 
1763.334 
1763.352 
1763.370 
1763.388 
1763.406 
1763.423 
1763.441 
1763.459 
1763.477 
1763.495 
1763.513 
1763.531 
1763.549 
1763.567 
1763.585 
1763.603 
1763.621 
1763.639 
1763.657 
1763.675 
1763.692 
1763.710 
1763.728 
1763.746 
1763.764 
1763.782 
1763.800 
1763.818 
1763.836 
1763.854 
1763.872 
1763.890 
1763.907 
1763.925 
1763.943 
1763.961 
1763.979 
1763.997 
1764.015 
1764.033 
1764.051 
1764.069 
1764.087 
1764.105 
1764.122 
1764.140 
1764.158 
1764.176 
1764.194 
1764.212 
1764.230 
1764.248 
1764.266 
1764.284 
1764.302 
1764.319 
1764.337 
1764.355 
1764.373 
1764.391 
1764.409 
1764.427 
1764.445 
1764.463 
1764.481 
1764.498 
1764.516 
1764.534 
1764.552 
1764.570 
1764.588 
1764.606 
1764.624 
1764.642 
1764.659 
1764.677 
1764.695 
1764.713 
1764.731 
1764.749 
1764.767 
1764.785 
1764.803 
1764.820 
1764.838 
1764.856 
1764.874 
1764.892 
1764.910 
1764.928 
1764.946 
1764.964 
1764.981 
1764.999 
1765.017 
1765.035 
1765.053 
1765.071 
1765.089 
1765.107 
1765.124 
1765.142 
1765.160 
1765.178 
1765.196 
1765.214 
1765.232 
1765.250 
1765.267 
1765.285 
1765.303 
1765.321 
1765.339 
1765.357 
1765.375 
1765.392 
1765.410 
1765.428 
1765.446 
1765.464 
1765.482 
1765.500 
1765.518 
1765.535 
1765.553 
1765.571 
1765.589 
1765.607 
1765.625 
1765.643 
1765.660 
1765.678 
1765.696 
1765.714 
1765.732 
1765.750 
1765.768 
1765.785 
1765.803 
1765.821 
1765.839 
1765.857 
1765.875 
1765.892 
1765.910 
1765.928 
1765.946 
1765.964 
1765.982 
1766.000 
1766.017 
1766.035 
1766.053 
1766.071 
1766.089 
1766.107 
1766.124 
1766.142 
1766.160 
1766.178 
1766.196 
1766.214 
1766.231 
1766.249 
1766.267 
1766.285 
1766.303 
1766.321 
1766.338 
1766.356 
1766.374 
1766.392 
1766.410 
1766.428 
1766.445 
1766.463 
1766.481 
1766.499 
1766.517 
1766.535 
1766.552 
1766.570 
1766.588 
1766.606 
1766.624 
1766.642 
1766.659 
1766.677 
1766.695 
1766.713 
1766.731 
1766.748 
1766.766 
1766.784 
1766.802 
1766.820 
1766.838 
1766.855 
1766.873 
1766.891 
1766.909 
1766.927 
1766.944 
1766.962 
1766.980 
1766.998 
1767.016 
1767.033 
1767.051 
1767.069 
1767.087 
1767.105 
1767.122 
1767.140 
1767.158 
1767.176 
1767.194 
1767.211 
1767.229 
1767.247 
1767.265 
1767.283 
1767.300 
1767.318 
1767.336 
1767.354 
1767.372 
1767.389 
1767.407 
1767.425 
1767.443 
1767.461 
1767.478 
1767.496 
1767.514 
1767.532 
1767.550 
1767.567 
1767.585 
1767.603 
1767.621 
1767.639 
1767.656 
1767.674 
1767.692 
1767.710 
1767.727 
1767.745 
1767.763 
1767.781 
1767.799 
1767.816 
1767.834 
1767.852 
1767.870 
1767.887 
1767.905 
1767.923 
1767.941 
1767.959 
1767.976 
1767.994 
1768.012 
1768.030 
1768.047 
1768.065 
1768.083 
1768.101 
1768.119 
1768.136 
1768.154 
1768.172 
1768.190 
1768.207 
1768.225 
1768.243 
1768.261 
1768.278 
1768.296 
1768.314 
1768.332 
1768.349 
1768.367 
1768.385 
1768.403 
1768.421 
1768.438 
1768.456 
1768.474 
1768.492 
1768.509 
1768.527 
1768.545 
1768.563 
1768.580 
1768.598 
1768.616 
1768.634 
1768.651 
1768.669 
1768.687 
1768.705 
1768.722 
1768.740 
1768.758 
1768.776 
1768.793 
1768.811 
1768.829 
1768.847 
1768.864 
1768.882 
1768.900 
1768.918 
1768.935 
1768.953 
1768.971 
1768.988 
1769.006 
1769.024 
1769.042 
1769.059 
1769.077 
1769.095 
1769.113 
1769.130 
1769.148 
1769.166 
1769.184 
1769.201 
1769.219 
1769.237 
1769.255 
1769.272 
1769.290 
1769.308 
1769.325 
1769.343 
1769.361 
1769.379 
1769.396 
1769.414 
1769.432 
1769.449 
1769.467 
1769.485 
1769.503 
1769.520 
1769.538 
1769.556 
1769.574 
1769.591 
1769.609 
1769.627 
1769.644 
1769.662 
1769.680 
1769.698 
1769.715 
1769.733 
1769.751 
1769.768 
1769.786 
1769.804 
1769.822 
1769.839 
1769.857 
1769.875 
1769.892 
1769.910 
1769.928 
1769.945 
1769.963 
1769.981 
1769.999 
1770.016 
1770.034 
1770.052 
1770.069 
1770.087 
1770.105 
1770.122 
1770.140 
1770.158 
1770.176 
1770.193 
1770.211 
1770.229 
1770.246 
1770.264 
1770.282 
1770.299 
1770.317 
1770.335 
1770.353 
1770.370 
1770.388 
1770.406 
1770.423 
1770.441 
1770.459 
1770.476 
1770.494 
1770.512 
1770.529 
1770.547 
1770.565 
1770.582 
1770.600 
1770.618 
1770.635 
1770.653 
1770.671 
1770.689 
1770.706 
1770.724 
1770.742 
1770.759 
1770.777 
1770.795 
1770.812 
1770.830 
1770.848 
1770.865 
1770.883 
1770.901 
1770.918 
1770.936 
1770.954 
1770.971 
1770.989 
1771.007 
1771.024 
1771.042 
1771.060 
1771.077 
1771.095 
1771.113 
1771.130 
1771.148 
1771.166 
1771.183 
1771.201 
1771.219 
1771.236 
1771.254 
1771.272 
1771.289 
1771.307 
1771.325 
1771.342 
1771.360 
1771.378 
1771.395 
1771.413 
1771.430 
1771.448 
1771.466 
1771.483 
1771.501 
1771.519 
1771.536 
1771.554 
1771.572 
1771.589 
1771.607 
1771.625 
1771.642 
1771.660 
1771.678 
1771.695 
1771.713 
1771.730 
1771.748 
1771.766 
1771.783 
1771.801 
1771.819 
1771.836 
1771.854 
1771.872 
1771.889 
1771.907 
1771.924 
1771.942 
1771.960 
1771.977 
1771.995 
1772.013 
1772.030 
1772.048 
1772.066 
1772.083 
1772.101 
1772.118 
1772.136 
1772.154 
1772.171 
1772.189 
1772.207 
1772.224 
1772.242 
1772.259 
1772.277 
1772.295 
1772.312 
1772.330 
1772.348 
1772.365 
1772.383 
1772.400 
1772.418 
1772.436 
1772.453 
1772.471 
1772.488 
1772.506 
1772.524 
1772.541 
1772.559 
1772.577 
1772.594 
1772.612 
1772.629 
1772.647 
1772.665 
1772.682 
1772.700 
1772.717 
1772.735 
1772.753 
1772.770 
1772.788 
1772.805 
1772.823 
1772.841 
1772.858 
1772.876 
1772.893 
1772.911 
1772.929 
1772.946 
1772.964 
1772.981 
1772.999 
1773.017 
1773.034 
1773.052 
1773.069 
1773.087 
1773.105 
1773.122 
1773.140 
1773.157 
1773.175 
1773.193 
1773.210 
1773.228 
1773.245 
1773.263 
1773.281 
1773.298 
1773.316 
1773.333 
1773.351 
1773.368 
1773.386 
1773.404 
1773.421 
1773.439 
1773.456 
1773.474 
1773.492 
1773.509 
1773.527 
1773.544 
1773.562 
1773.579 
1773.597 
1773.615 
1773.632 
1773.650 
1773.667 
1773.685 
1773.702 
1773.720 
1773.738 
1773.755 
1773.773 
1773.790 
1773.808 
1773.825 
1773.843 
1773.861 
1773.878 
1773.896 
1773.913 
1773.931 
1773.948 
1773.966 
1773.983 
1774.001 
1774.019 
1774.036 
1774.054 
1774.071 
1774.089 
1774.106 
1774.124 
1774.141 
1774.159 
1774.177 
1774.194 
1774.212 
1774.229 
1774.247 
1774.264 
1774.282 
1774.299 
1774.317 
1774.335 
1774.352 
1774.370 
1774.387 
1774.405 
1774.422 
1774.440 
1774.457 
1774.475 
1774.492 
1774.510 
1774.528 
1774.545 
1774.563 
1774.580 
1774.598 
1774.615 
1774.633 
1774.650 
1774.668 
1774.685 
1774.703 
1774.720 
1774.738 
1774.756 
1774.773 
1774.791 
1774.808 
1774.826 
1774.843 
1774.861 
1774.878 
1774.896 
1774.913 
1774.931 
1774.948 
1774.966 
1774.983 
1775.001 
1775.018 
1775.036 
1775.054 
1775.071 
1775.089 
1775.106 
1775.124 
1775.141 
1775.159 
1775.176 
1775.194 
1775.211 
1775.229 
1775.246 
1775.264 
1775.281 
1775.299 
1775.316 
1775.334 
1775.351 
1775.369 
1775.386 
1775.404 
1775.421 
1775.439 
1775.456 
1775.474 
1775.491 
1775.509 
1775.526 
1775.544 
1775.561 
1775.579 
1775.596 
1775.614 
1775.631 
1775.649 
1775.666 
1775.684 
1775.701 
1775.719 
1775.736 
1775.754 
1775.771 
1775.789 
1775.806 
1775.824 
1775.841 
1775.859 
1775.876 
1775.894 
1775.911 
1775.929 
1775.946 
1775.964 
1775.981 
1775.999 
1776.016 
1776.034 
1776.051 
1776.069 
1776.086 
1776.104 
1776.121 
1776.139 
1776.156 
1776.174 
1776.191 
1776.209 
1776.226 
1776.244 
1776.261 
1776.279 
1776.296 
1776.314 
1776.331 
1776.349 
1776.366 
1776.383 
1776.401 
1776.418 
1776.436 
1776.453 
1776.471 
1776.488 
1776.506 
1776.523 
1776.541 
1776.558 
1776.576 
1776.593 
1776.611 
1776.628 
1776.646 
1776.663 
1776.680 
1776.698 
1776.715 
1776.733 
1776.750 
1776.768 
1776.785 
1776.803 
1776.820 
1776.838 
1776.855 
1776.873 
1776.890 
1776.907 
1776.925 
1776.942 
1776.960 
1776.977 
1776.995 
1777.012 
1777.030 
1777.047 
1777.065 
1777.082 
1777.099 
1777.117 
1777.134 
1777.152 
1777.169 
1777.187 
1777.204 
1777.222 
1777.239 
1777.256 
1777.274 
1777.291 
1777.309 
1777.326 
1777.344 
1777.361 
1777.379 
1777.396 
1777.413 
1777.431 
1777.448 
1777.466 
1777.483 
1777.501 
1777.518 
1777.536 
1777.553 
1777.570 
1777.588 
1777.605 
1777.623 
1777.640 
1777.658 
1777.675 
1777.692 
1777.710 
1777.727 
1777.745 
1777.762 
1777.780 
1777.797 
1777.814 
1777.832 
1777.849 
1777.867 
1777.884 
1777.901 
1777.919 
1777.936 
1777.954 
1777.971 
1777.989 
1778.006 
1778.023 
1778.041 
1778.058 
1778.076 
1778.093 
1778.110 
1778.128 
1778.145 
1778.163 
1778.180 
1778.198 
1778.215 
1778.232 
1778.250 
1778.267 
1778.285 
1778.302 
1778.319 
1778.337 
1778.354 
1778.372 
1778.389 
1778.406 
1778.424 
1778.441 
1778.459 
1778.476 
1778.493 
1778.511 
1778.528 
1778.546 
1778.563 
1778.580 
1778.598 
1778.615 
1778.633 
1778.650 
1778.667 
1778.685 
1778.702 
1778.720 
1778.737 
1778.754 
1778.772 
1778.789 
1778.807 
1778.824 
1778.841 
1778.859 
1778.876 
1778.893 
1778.911 
1778.928 
1778.946 
1778.963 
1778.980 
1778.998 
1779.015 
1779.033 
1779.050 
1779.067 
1779.085 
1779.102 
1779.119 
1779.137 
1779.154 
1779.172 
1779.189 
1779.206 
1779.224 
1779.241 
1779.258 
1779.276 
1779.293 
1779.311 
1779.328 
1779.345 
1779.363 
1779.380 
1779.397 
1779.415 
1779.432 
1779.449 
1779.467 
1779.484 
1779.502 
1779.519 
1779.536 
1779.554 
1779.571 
1779.588 
1779.606 
1779.623 
1779.640 
1779.658 
1779.675 
1779.693 
1779.710 
1779.727 
1779.745 
1779.762 
1779.779 
1779.797 
1779.814 
1779.831 
1779.849 
1779.866 
1779.883 
1779.901 
1779.918 
1779.935 
1779.953 
1779.970 
1779.987 
1780.005 
1780.022 
1780.040 
1780.057 
1780.074 
1780.092 
1780.109 
1780.126 
1780.144 
1780.161 
1780.178 
1780.196 
1780.213 
1780.230 
1780.248 
1780.265 
1780.282 
1780.300 
1780.317 
1780.334 
1780.352 
1780.369 
1780.386 
1780.404 
1780.421 
1780.438 
1780.456 
1780.473 
1780.490 
1780.508 
1780.525 
1780.542 
1780.560 
1780.577 
1780.594 
1780.612 
1780.629 
1780.646 
1780.663 
1780.681 
1780.698 
1780.715 
1780.733 
1780.750 
1780.767 
1780.785 
1780.802 
1780.819 
1780.837 
1780.854 
1780.871 
1780.889 
1780.906 
1780.923 
1780.941 
1780.958 
1780.975 
1780.992 
1781.010 
1781.027 
1781.044 
1781.062 
1781.079 
1781.096 
1781.114 
1781.131 
1781.148 
1781.166 
1781.183 
1781.200 
1781.217 
1781.235 
1781.252 
1781.269 
1781.287 
1781.304 
1781.321 
1781.339 
1781.356 
1781.373 
1781.390 
1781.408 
1781.425 
1781.442 
1781.460 
1781.477 
1781.494 
1781.511 
1781.529 
1781.546 
1781.563 
1781.581 
1781.598 
1781.615 
1781.632 
1781.650 
1781.667 
1781.684 
1781.702 
1781.719 
1781.736 
1781.753 
1781.771 
1781.788 
1781.805 
1781.823 
1781.840 
1781.857 
1781.874 
1781.892 
1781.909 
1781.926 
1781.944 
1781.961 
1781.978 
1781.995 
1782.013 
1782.030 
1782.047 
1782.064 
1782.082 
1782.099 
1782.116 
1782.134 
1782.151 
1782.168 
1782.185 
1782.203 
1782.220 
1782.237 
1782.254 
1782.272 
1782.289 
1782.306 
1782.323 
1782.341 
1782.358 
1782.375 
1782.392 
1782.410 
1782.427 
1782.444 
1782.461 
1782.479 
1782.496 
1782.513 
1782.531 
1782.548 
1782.565 
1782.582 
1782.600 
1782.617 
1782.634 
1782.651 
1782.669 
1782.686 
1782.703 
1782.720 
1782.738 
1782.755 
1782.772 
1782.789 
1782.806 
1782.824 
1782.841 
1782.858 
1782.875 
1782.893 
1782.910 
1782.927 
1782.944 
1782.962 
1782.979 
1782.996 
1783.013 
1783.031 
1783.048 
1783.065 
1783.082 
1783.100 
1783.117 
1783.134 
1783.151 
1783.168 
1783.186 
1783.203 
1783.220 
1783.237 
1783.255 
1783.272 
1783.289 
1783.306 
1783.324 
1783.341 
1783.358 
1783.375 
1783.392 
1783.410 
1783.427 
1783.444 
1783.461 
1783.478 
1783.496 
1783.513 
1783.530 
1783.547 
1783.565 
1783.582 
1783.599 
1783.616 
1783.633 
1783.651 
1783.668 
1783.685 
1783.702 
1783.720 
1783.737 
1783.754 
1783.771 
1783.788 
1783.806 
1783.823 
1783.840 
1783.857 
1783.874 
1783.892 
1783.909 
1783.926 
1783.943 
1783.960 
1783.978 
1783.995 
