# Wavelength table for hrs,g160m
1200.000 
1200.072 
1200.144 
1200.216 
1200.288 
1200.360 
1200.432 
1200.504 
1200.576 
1200.648 
1200.720 
1200.792 
1200.864 
1200.936 
1201.008 
1201.080 
1201.152 
1201.224 
1201.296 
1201.368 
1201.440 
1201.512 
1201.584 
1201.656 
1201.728 
1201.800 
1201.872 
1201.944 
1202.016 
1202.088 
1202.160 
1202.232 
1202.304 
1202.376 
1202.448 
1202.520 
1202.592 
1202.664 
1202.736 
1202.808 
1202.880 
1202.952 
1203.024 
1203.096 
1203.167 
1203.239 
1203.311 
1203.383 
1203.455 
1203.527 
1203.599 
1203.671 
1203.743 
1203.815 
1203.887 
1203.959 
1204.031 
1204.103 
1204.175 
1204.247 
1204.319 
1204.391 
1204.463 
1204.535 
1204.607 
1204.679 
1204.751 
1204.823 
1204.895 
1204.967 
1205.039 
1205.111 
1205.183 
1205.255 
1205.327 
1205.399 
1205.471 
1205.542 
1205.614 
1205.686 
1205.758 
1205.830 
1205.902 
1205.974 
1206.046 
1206.118 
1206.190 
1206.262 
1206.334 
1206.406 
1206.478 
1206.550 
1206.622 
1206.694 
1206.766 
1206.838 
1206.910 
1206.982 
1207.054 
1207.125 
1207.197 
1207.269 
1207.341 
1207.413 
1207.485 
1207.557 
1207.629 
1207.701 
1207.773 
1207.845 
1207.917 
1207.989 
1208.061 
1208.133 
1208.205 
1208.277 
1208.349 
1208.420 
1208.492 
1208.564 
1208.636 
1208.708 
1208.780 
1208.852 
1208.924 
1208.996 
1209.068 
1209.140 
1209.212 
1209.284 
1209.356 
1209.428 
1209.499 
1209.571 
1209.643 
1209.715 
1209.787 
1209.859 
1209.931 
1210.003 
1210.075 
1210.147 
1210.219 
1210.291 
1210.363 
1210.435 
1210.506 
1210.578 
1210.650 
1210.722 
1210.794 
1210.866 
1210.938 
1211.010 
1211.082 
1211.154 
1211.226 
1211.298 
1211.370 
1211.441 
1211.513 
1211.585 
1211.657 
1211.729 
1211.801 
1211.873 
1211.945 
1212.017 
1212.089 
1212.161 
1212.233 
1212.304 
1212.376 
1212.448 
1212.520 
1212.592 
1212.664 
1212.736 
1212.808 
1212.880 
1212.952 
1213.024 
1213.095 
1213.167 
1213.239 
1213.311 
1213.383 
1213.455 
1213.527 
1213.599 
1213.671 
1213.743 
1213.814 
1213.886 
1213.958 
1214.030 
1214.102 
1214.174 
1214.246 
1214.318 
1214.390 
1214.462 
1214.533 
1214.605 
1214.677 
1214.749 
1214.821 
1214.893 
1214.965 
1215.037 
1215.109 
1215.180 
1215.252 
1215.324 
1215.396 
1215.468 
1215.540 
1215.612 
1215.684 
1215.756 
1215.827 
1215.899 
1215.971 
1216.043 
1216.115 
1216.187 
1216.259 
1216.331 
1216.403 
1216.474 
1216.546 
1216.618 
1216.690 
1216.762 
1216.834 
1216.906 
1216.978 
1217.049 
1217.121 
1217.193 
1217.265 
1217.337 
1217.409 
1217.481 
1217.553 
1217.624 
1217.696 
1217.768 
1217.840 
1217.912 
1217.984 
1218.056 
1218.128 
1218.199 
1218.271 
1218.343 
1218.415 
1218.487 
1218.559 
1218.631 
1218.703 
1218.774 
1218.846 
1218.918 
1218.990 
1219.062 
1219.134 
1219.206 
1219.277 
1219.349 
1219.421 
1219.493 
1219.565 
1219.637 
1219.709 
1219.780 
1219.852 
1219.924 
1219.996 
1220.068 
1220.140 
1220.212 
1220.283 
1220.355 
1220.427 
1220.499 
1220.571 
1220.643 
1220.715 
1220.786 
1220.858 
1220.930 
1221.002 
1221.074 
1221.146 
1221.217 
1221.289 
1221.361 
1221.433 
1221.505 
1221.577 
1221.649 
1221.720 
1221.792 
1221.864 
1221.936 
1222.008 
1222.080 
1222.151 
1222.223 
1222.295 
1222.367 
1222.439 
1222.511 
1222.582 
1222.654 
1222.726 
1222.798 
1222.870 
1222.942 
1223.014 
1223.085 
1223.157 
1223.229 
1223.301 
1223.373 
1223.445 
1223.516 
1223.588 
1223.660 
1223.732 
1223.804 
1223.875 
1223.947 
1224.019 
1224.091 
1224.163 
1224.235 
1224.306 
1224.378 
1224.450 
1224.522 
1224.594 
1224.666 
1224.737 
1224.809 
1224.881 
1224.953 
1225.025 
1225.096 
1225.168 
1225.240 
1225.312 
1225.384 
1225.456 
1225.527 
1225.599 
1225.671 
1225.743 
1225.815 
1225.886 
1225.958 
1226.030 
1226.102 
1226.174 
1226.246 
1226.317 
1226.389 
1226.461 
1226.533 
1226.605 
1226.676 
1226.748 
1226.820 
1226.892 
1226.964 
1227.035 
1227.107 
1227.179 
1227.251 
1227.323 
1227.394 
1227.466 
1227.538 
1227.610 
1227.682 
1227.753 
1227.825 
1227.897 
1227.969 
1228.041 
1228.112 
1228.184 
1228.256 
1228.328 
1228.400 
1228.471 
1228.543 
1228.615 
1228.687 
1228.759 
1228.830 
1228.902 
1228.974 
1229.046 
1229.118 
1229.189 
1229.261 
1229.333 
1229.405 
1229.477 
1229.548 
1229.620 
1229.692 
1229.764 
1229.835 
1229.907 
1229.979 
1230.051 
1230.123 
1230.194 
1230.266 
1230.338 
1230.410 
1230.481 
1230.553 
1230.625 
1230.697 
1230.769 
1230.840 
1230.912 
1230.984 
1231.056 
1231.127 
1231.199 
1231.271 
1231.343 
1231.415 
1231.486 
1231.558 
1231.630 
1231.702 
1231.773 
1231.845 
1231.917 
1231.989 
1232.061 
1232.132 
1232.204 
1232.276 
1232.348 
1232.419 
1232.491 
1232.563 
1232.635 
1232.706 
1232.778 
1232.850 
1232.922 
1232.993 
1233.065 
1233.137 
1233.209 
1233.281 
1233.352 
1233.424 
1233.496 
1233.568 
1233.639 
1233.711 
1233.783 
1233.855 
1233.926 
1233.998 
1234.070 
1234.142 
1234.213 
1234.285 
1234.357 
1234.429 
1234.500 
1234.572 
1234.644 
1234.716 
1234.787 
1234.859 
1234.931 
1235.003 
1235.074 
1235.146 
1235.218 
1235.290 
1235.361 
1235.433 
1235.505 
1235.577 
1235.648 
1235.720 
1235.792 
1235.864 
1235.935 
1236.007 
1236.079 
1236.151 
1236.222 
1236.294 
1236.366 
1236.437 
1236.509 
1236.581 
1236.653 
1236.724 
1236.796 
1236.868 
1236.940 
1237.011 
1237.083 
1237.155 
1237.227 
1237.298 
1237.370 
1237.442 
1237.513 
1237.585 
1237.657 
1237.729 
1237.800 
1237.872 
1237.944 
1238.016 
1238.087 
1238.159 
1238.231 
1238.302 
1238.374 
1238.446 
1238.518 
1238.589 
1238.661 
1238.733 
1238.805 
1238.876 
1238.948 
1239.020 
1239.091 
1239.163 
1239.235 
1239.307 
1239.378 
1239.450 
1239.522 
1239.593 
1239.665 
1239.737 
1239.809 
1239.880 
1239.952 
1240.024 
1240.095 
1240.167 
1240.239 
1240.311 
1240.382 
1240.454 
1240.526 
1240.597 
1240.669 
1240.741 
1240.813 
1240.884 
1240.956 
1241.028 
1241.099 
1241.171 
1241.243 
1241.314 
1241.386 
1241.458 
1241.530 
1241.601 
1241.673 
1241.745 
1241.816 
1241.888 
1241.960 
1242.031 
1242.103 
1242.175 
1242.247 
1242.318 
1242.390 
1242.462 
1242.533 
1242.605 
1242.677 
1242.748 
1242.820 
1242.892 
1242.963 
1243.035 
1243.107 
1243.179 
1243.250 
1243.322 
1243.394 
1243.465 
1243.537 
1243.609 
1243.680 
1243.752 
1243.824 
1243.895 
1243.967 
1244.039 
1244.110 
1244.182 
1244.254 
1244.325 
1244.397 
1244.469 
1244.541 
1244.612 
1244.684 
1244.756 
1244.827 
1244.899 
1244.971 
1245.042 
1245.114 
1245.186 
1245.257 
1245.329 
1245.401 
1245.472 
1245.544 
1245.616 
1245.687 
1245.759 
1245.831 
1245.902 
1245.974 
1246.046 
1246.117 
1246.189 
1246.261 
1246.332 
1246.404 
1246.476 
1246.547 
1246.619 
1246.691 
1246.762 
1246.834 
1246.906 
1246.977 
1247.049 
1247.121 
1247.192 
1247.264 
1247.336 
1247.407 
1247.479 
1247.551 
1247.622 
1247.694 
1247.766 
1247.837 
1247.909 
1247.981 
1248.052 
1248.124 
1248.196 
1248.267 
1248.339 
1248.410 
1248.482 
1248.554 
1248.625 
1248.697 
1248.769 
1248.840 
1248.912 
1248.984 
1249.055 
1249.127 
1249.199 
1249.270 
1249.342 
1249.414 
1249.485 
1249.557 
1249.628 
1249.700 
1249.772 
1249.843 
1249.915 
1249.987 
1250.058 
1250.130 
1250.202 
1250.273 
1250.345 
1250.416 
1250.488 
1250.560 
1250.631 
1250.703 
1250.775 
1250.846 
1250.918 
1250.990 
1251.061 
1251.133 
1251.204 
1251.276 
1251.348 
1251.419 
1251.491 
1251.563 
1251.634 
1251.706 
1251.777 
1251.849 
1251.921 
1251.992 
1252.064 
1252.136 
1252.207 
1252.279 
1252.350 
1252.422 
1252.494 
1252.565 
1252.637 
1252.709 
1252.780 
1252.852 
1252.923 
1252.995 
1253.067 
1253.138 
1253.210 
1253.282 
1253.353 
1253.425 
1253.496 
1253.568 
1253.640 
1253.711 
1253.783 
1253.854 
1253.926 
1253.998 
1254.069 
1254.141 
1254.213 
1254.284 
1254.356 
1254.427 
1254.499 
1254.571 
1254.642 
1254.714 
1254.785 
1254.857 
1254.929 
1255.000 
1255.072 
1255.143 
1255.215 
1255.287 
1255.358 
1255.430 
1255.501 
1255.573 
1255.645 
1255.716 
1255.788 
1255.859 
1255.931 
1256.003 
1256.074 
1256.146 
1256.217 
1256.289 
1256.361 
1256.432 
1256.504 
1256.575 
1256.647 
1256.719 
1256.790 
1256.862 
1256.933 
1257.005 
1257.076 
1257.148 
1257.220 
1257.291 
1257.363 
1257.434 
1257.506 
1257.578 
1257.649 
1257.721 
1257.792 
1257.864 
1257.935 
1258.007 
1258.079 
1258.150 
1258.222 
1258.293 
1258.365 
1258.437 
1258.508 
1258.580 
1258.651 
1258.723 
1258.794 
1258.866 
1258.938 
1259.009 
1259.081 
1259.152 
1259.224 
1259.295 
1259.367 
1259.439 
1259.510 
1259.582 
1259.653 
1259.725 
1259.796 
1259.868 
1259.940 
1260.011 
1260.083 
1260.154 
1260.226 
1260.297 
1260.369 
1260.441 
1260.512 
1260.584 
1260.655 
1260.727 
1260.798 
1260.870 
1260.941 
1261.013 
1261.085 
1261.156 
1261.228 
1261.299 
1261.371 
1261.442 
1261.514 
1261.586 
1261.657 
1261.729 
1261.800 
1261.872 
1261.943 
1262.015 
1262.086 
1262.158 
1262.230 
1262.301 
1262.373 
1262.444 
1262.516 
1262.587 
1262.659 
1262.730 
1262.802 
1262.873 
1262.945 
1263.017 
1263.088 
1263.160 
1263.231 
1263.303 
1263.374 
1263.446 
1263.517 
1263.589 
1263.660 
1263.732 
1263.804 
1263.875 
1263.947 
1264.018 
1264.090 
1264.161 
1264.233 
1264.304 
1264.376 
1264.447 
1264.519 
1264.590 
1264.662 
1264.733 
1264.805 
1264.877 
1264.948 
1265.020 
1265.091 
1265.163 
1265.234 
1265.306 
1265.377 
1265.449 
1265.520 
1265.592 
1265.663 
1265.735 
1265.806 
1265.878 
1265.949 
1266.021 
1266.093 
1266.164 
1266.236 
1266.307 
1266.379 
1266.450 
1266.522 
1266.593 
1266.665 
1266.736 
1266.808 
1266.879 
1266.951 
1267.022 
1267.094 
1267.165 
1267.237 
1267.308 
1267.380 
1267.451 
1267.523 
1267.594 
1267.666 
1267.737 
1267.809 
1267.880 
1267.952 
1268.023 
1268.095 
1268.166 
1268.238 
1268.309 
1268.381 
1268.453 
1268.524 
1268.596 
1268.667 
1268.739 
1268.810 
1268.882 
1268.953 
1269.025 
1269.096 
1269.168 
1269.239 
1269.311 
1269.382 
1269.454 
1269.525 
1269.597 
1269.668 
1269.740 
1269.811 
1269.883 
1269.954 
1270.026 
1270.097 
1270.169 
1270.240 
1270.311 
1270.383 
1270.454 
1270.526 
1270.597 
1270.669 
1270.740 
1270.812 
1270.883 
1270.955 
1271.026 
1271.098 
1271.169 
1271.241 
1271.312 
1271.384 
1271.455 
1271.527 
1271.598 
1271.670 
1271.741 
1271.813 
1271.884 
1271.956 
1272.027 
1272.099 
1272.170 
1272.242 
1272.313 
1272.385 
1272.456 
1272.528 
1272.599 
1272.670 
1272.742 
1272.813 
1272.885 
1272.956 
1273.028 
1273.099 
1273.171 
1273.242 
1273.314 
1273.385 
1273.457 
1273.528 
1273.600 
1273.671 
1273.743 
1273.814 
1273.885 
1273.957 
1274.028 
1274.100 
1274.171 
1274.243 
1274.314 
1274.386 
1274.457 
1274.529 
1274.600 
1274.672 
1274.743 
1274.815 
1274.886 
1274.957 
1275.029 
1275.100 
1275.172 
1275.243 
1275.315 
1275.386 
1275.458 
1275.529 
1275.601 
1275.672 
1275.743 
1275.815 
1275.886 
1275.958 
1276.029 
1276.101 
1276.172 
1276.244 
1276.315 
1276.387 
1276.458 
1276.529 
1276.601 
1276.672 
1276.744 
1276.815 
1276.887 
1276.958 
1277.030 
1277.101 
1277.172 
1277.244 
1277.315 
1277.387 
1277.458 
1277.530 
1277.601 
1277.673 
1277.744 
1277.815 
1277.887 
1277.958 
1278.030 
1278.101 
1278.173 
1278.244 
1278.315 
1278.387 
1278.458 
1278.530 
1278.601 
1278.673 
1278.744 
1278.815 
1278.887 
1278.958 
1279.030 
1279.101 
1279.173 
1279.244 
1279.315 
1279.387 
1279.458 
1279.530 
1279.601 
1279.673 
1279.744 
1279.815 
1279.887 
1279.958 
1280.030 
1280.101 
1280.173 
1280.244 
1280.315 
1280.387 
1280.458 
1280.530 
1280.601 
1280.673 
1280.744 
1280.815 
1280.887 
1280.958 
1281.030 
1281.101 
1281.172 
1281.244 
1281.315 
1281.387 
1281.458 
1281.529 
1281.601 
1281.672 
1281.744 
1281.815 
1281.887 
1281.958 
1282.029 
1282.101 
1282.172 
1282.244 
1282.315 
1282.386 
1282.458 
1282.529 
1282.601 
1282.672 
1282.743 
1282.815 
1282.886 
1282.958 
1283.029 
1283.100 
1283.172 
1283.243 
1283.315 
1283.386 
1283.457 
1283.529 
1283.600 
1283.672 
1283.743 
1283.814 
1283.886 
1283.957 
1284.029 
1284.100 
1284.171 
1284.243 
1284.314 
1284.386 
1284.457 
1284.528 
1284.600 
1284.671 
1284.742 
1284.814 
1284.885 
1284.957 
1285.028 
1285.099 
1285.171 
1285.242 
1285.314 
1285.385 
1285.456 
1285.528 
1285.599 
1285.670 
1285.742 
1285.813 
1285.885 
1285.956 
1286.027 
1286.099 
1286.170 
1286.242 
1286.313 
1286.384 
1286.456 
1286.527 
1286.598 
1286.670 
1286.741 
1286.813 
1286.884 
1286.955 
1287.027 
1287.098 
1287.169 
1287.241 
1287.312 
1287.384 
1287.455 
1287.526 
1287.598 
1287.669 
1287.740 
1287.812 
1287.883 
1287.954 
1288.026 
1288.097 
1288.169 
1288.240 
1288.311 
1288.383 
1288.454 
1288.525 
1288.597 
1288.668 
1288.739 
1288.811 
1288.882 
1288.954 
1289.025 
1289.096 
1289.168 
1289.239 
1289.310 
1289.382 
1289.453 
1289.524 
1289.596 
1289.667 
1289.738 
1289.810 
1289.881 
1289.952 
1290.024 
1290.095 
1290.167 
1290.238 
1290.309 
1290.381 
1290.452 
1290.523 
1290.595 
1290.666 
1290.737 
1290.809 
1290.880 
1290.951 
1291.023 
1291.094 
1291.165 
1291.237 
1291.308 
1291.379 
1291.451 
1291.522 
1291.593 
1291.665 
1291.736 
1291.807 
1291.879 
1291.950 
1292.021 
1292.093 
1292.164 
1292.235 
1292.307 
1292.378 
1292.449 
1292.521 
1292.592 
1292.663 
1292.735 
1292.806 
1292.877 
1292.949 
1293.020 
1293.091 
1293.163 
1293.234 
1293.305 
1293.377 
1293.448 
1293.519 
1293.591 
1293.662 
1293.733 
1293.805 
1293.876 
1293.947 
1294.019 
1294.090 
1294.161 
1294.233 
1294.304 
1294.375 
1294.447 
1294.518 
1294.589 
1294.660 
1294.732 
1294.803 
1294.874 
1294.946 
1295.017 
1295.088 
1295.160 
1295.231 
1295.302 
1295.374 
1295.445 
1295.516 
1295.588 
1295.659 
1295.730 
1295.801 
1295.873 
1295.944 
1296.015 
1296.087 
1296.158 
1296.229 
1296.301 
1296.372 
1296.443 
1296.515 
1296.586 
1296.657 
1296.728 
1296.800 
1296.871 
1296.942 
1297.014 
1297.085 
1297.156 
1297.228 
1297.299 
1297.370 
1297.441 
1297.513 
1297.584 
1297.655 
1297.727 
1297.798 
1297.869 
1297.940 
1298.012 
1298.083 
1298.154 
1298.226 
1298.297 
1298.368 
1298.440 
1298.511 
1298.582 
1298.653 
1298.725 
1298.796 
1298.867 
1298.939 
1299.010 
1299.081 
1299.152 
1299.224 
1299.295 
1299.366 
1299.438 
1299.509 
1299.580 
1299.651 
1299.723 
1299.794 
1299.865 
1299.936 
1300.008 
1300.079 
1300.150 
1300.222 
1300.293 
1300.364 
1300.435 
1300.507 
1300.578 
1300.649 
1300.720 
1300.792 
1300.863 
1300.934 
1301.006 
1301.077 
1301.148 
1301.219 
1301.291 
1301.362 
1301.433 
1301.504 
1301.576 
1301.647 
1301.718 
1301.790 
1301.861 
1301.932 
1302.003 
1302.075 
1302.146 
1302.217 
1302.288 
1302.360 
1302.431 
1302.502 
1302.573 
1302.645 
1302.716 
1302.787 
1302.858 
1302.930 
1303.001 
1303.072 
1303.143 
1303.215 
1303.286 
1303.357 
1303.428 
1303.500 
1303.571 
1303.642 
1303.713 
1303.785 
1303.856 
1303.927 
1303.998 
1304.070 
1304.141 
1304.212 
1304.283 
1304.355 
1304.426 
1304.497 
1304.568 
1304.640 
1304.711 
1304.782 
1304.853 
1304.925 
1304.996 
1305.067 
1305.138 
1305.210 
1305.281 
1305.352 
1305.423 
1305.495 
1305.566 
1305.637 
1305.708 
1305.780 
1305.851 
1305.922 
1305.993 
1306.064 
1306.136 
1306.207 
1306.278 
1306.349 
1306.421 
1306.492 
1306.563 
1306.634 
1306.706 
1306.777 
1306.848 
1306.919 
1306.990 
1307.062 
1307.133 
1307.204 
1307.275 
1307.347 
1307.418 
1307.489 
1307.560 
1307.631 
1307.703 
1307.774 
1307.845 
1307.916 
1307.988 
1308.059 
1308.130 
1308.201 
1308.272 
1308.344 
1308.415 
1308.486 
1308.557 
1308.629 
1308.700 
1308.771 
1308.842 
1308.913 
1308.985 
1309.056 
1309.127 
1309.198 
1309.269 
1309.341 
1309.412 
1309.483 
1309.554 
1309.626 
1309.697 
1309.768 
1309.839 
1309.910 
1309.982 
1310.053 
1310.124 
1310.195 
1310.266 
1310.338 
1310.409 
1310.480 
1310.551 
1310.622 
1310.694 
1310.765 
1310.836 
1310.907 
1310.978 
1311.050 
1311.121 
1311.192 
1311.263 
1311.334 
1311.406 
1311.477 
1311.548 
1311.619 
1311.690 
1311.761 
1311.833 
1311.904 
1311.975 
1312.046 
1312.117 
1312.189 
1312.260 
1312.331 
1312.402 
1312.473 
1312.545 
1312.616 
1312.687 
1312.758 
1312.829 
1312.901 
1312.972 
1313.043 
1313.114 
1313.185 
1313.256 
1313.328 
1313.399 
1313.470 
1313.541 
1313.612 
1313.683 
1313.755 
1313.826 
1313.897 
1313.968 
1314.039 
1314.111 
1314.182 
1314.253 
1314.324 
1314.395 
1314.466 
1314.538 
1314.609 
1314.680 
1314.751 
1314.822 
1314.893 
1314.965 
1315.036 
1315.107 
1315.178 
1315.249 
1315.320 
1315.392 
1315.463 
1315.534 
1315.605 
1315.676 
1315.747 
1315.819 
1315.890 
1315.961 
1316.032 
1316.103 
1316.174 
1316.246 
1316.317 
1316.388 
1316.459 
1316.530 
1316.601 
1316.673 
1316.744 
1316.815 
1316.886 
1316.957 
1317.028 
1317.099 
1317.171 
1317.242 
1317.313 
1317.384 
1317.455 
1317.526 
1317.598 
1317.669 
1317.740 
1317.811 
1317.882 
1317.953 
1318.024 
1318.096 
1318.167 
1318.238 
1318.309 
1318.380 
1318.451 
1318.522 
1318.594 
1318.665 
1318.736 
1318.807 
1318.878 
1318.949 
1319.020 
1319.092 
1319.163 
1319.234 
1319.305 
1319.376 
1319.447 
1319.518 
1319.590 
1319.661 
1319.732 
1319.803 
1319.874 
1319.945 
1320.016 
1320.087 
1320.159 
1320.230 
1320.301 
1320.372 
1320.443 
1320.514 
1320.585 
1320.656 
1320.728 
1320.799 
1320.870 
1320.941 
1321.012 
1321.083 
1321.154 
1321.225 
1321.297 
1321.368 
1321.439 
1321.510 
1321.581 
1321.652 
1321.723 
1321.794 
1321.866 
1321.937 
1322.008 
1322.079 
1322.150 
1322.221 
1322.292 
1322.363 
1322.435 
1322.506 
1322.577 
1322.648 
1322.719 
1322.790 
1322.861 
1322.932 
1323.003 
1323.075 
1323.146 
1323.217 
1323.288 
1323.359 
1323.430 
1323.501 
1323.572 
1323.643 
1323.714 
1323.786 
1323.857 
1323.928 
1323.999 
1324.070 
1324.141 
1324.212 
1324.283 
1324.354 
1324.426 
1324.497 
1324.568 
1324.639 
1324.710 
1324.781 
1324.852 
1324.923 
1324.994 
1325.065 
1325.136 
1325.208 
1325.279 
1325.350 
1325.421 
1325.492 
1325.563 
1325.634 
1325.705 
1325.776 
1325.847 
1325.918 
1325.990 
1326.061 
1326.132 
1326.203 
1326.274 
1326.345 
1326.416 
1326.487 
1326.558 
1326.629 
1326.700 
1326.772 
1326.843 
1326.914 
1326.985 
1327.056 
1327.127 
1327.198 
1327.269 
1327.340 
1327.411 
1327.482 
1327.553 
1327.624 
1327.696 
1327.767 
1327.838 
1327.909 
1327.980 
1328.051 
1328.122 
1328.193 
1328.264 
1328.335 
1328.406 
1328.477 
1328.548 
1328.620 
1328.691 
1328.762 
1328.833 
1328.904 
1328.975 
1329.046 
1329.117 
1329.188 
1329.259 
1329.330 
1329.401 
1329.472 
1329.543 
1329.614 
1329.685 
1329.757 
1329.828 
1329.899 
1329.970 
1330.041 
1330.112 
1330.183 
1330.254 
1330.325 
1330.396 
1330.467 
1330.538 
1330.609 
1330.680 
1330.751 
1330.822 
1330.893 
1330.965 
1331.036 
1331.107 
1331.178 
1331.249 
1331.320 
1331.391 
1331.462 
1331.533 
1331.604 
1331.675 
1331.746 
1331.817 
1331.888 
1331.959 
1332.030 
1332.101 
1332.172 
1332.243 
1332.314 
1332.385 
1332.457 
1332.528 
1332.599 
1332.670 
1332.741 
1332.812 
1332.883 
1332.954 
1333.025 
1333.096 
1333.167 
1333.238 
1333.309 
1333.380 
1333.451 
1333.522 
1333.593 
1333.664 
1333.735 
1333.806 
1333.877 
1333.948 
1334.019 
1334.090 
1334.161 
1334.232 
1334.303 
1334.374 
1334.445 
1334.517 
1334.588 
1334.659 
1334.730 
1334.801 
1334.872 
1334.943 
1335.014 
1335.085 
1335.156 
1335.227 
1335.298 
1335.369 
1335.440 
1335.511 
1335.582 
1335.653 
1335.724 
1335.795 
1335.866 
1335.937 
1336.008 
1336.079 
1336.150 
1336.221 
1336.292 
1336.363 
1336.434 
1336.505 
1336.576 
1336.647 
1336.718 
1336.789 
1336.860 
1336.931 
1337.002 
1337.073 
1337.144 
1337.215 
1337.286 
1337.357 
1337.428 
1337.499 
1337.570 
1337.641 
1337.712 
1337.783 
1337.854 
1337.925 
1337.996 
1338.067 
1338.138 
1338.209 
1338.280 
1338.351 
1338.422 
1338.493 
1338.564 
1338.635 
1338.706 
1338.777 
1338.848 
1338.919 
1338.990 
1339.061 
1339.132 
1339.203 
1339.274 
1339.345 
1339.416 
1339.487 
1339.558 
1339.629 
1339.700 
1339.771 
1339.842 
1339.913 
1339.984 
1340.055 
1340.126 
1340.197 
1340.268 
1340.339 
1340.410 
1340.481 
1340.552 
1340.623 
1340.694 
1340.765 
1340.836 
1340.907 
1340.978 
1341.049 
1341.120 
1341.191 
1341.262 
1341.333 
1341.404 
1341.475 
1341.546 
1341.617 
1341.688 
1341.759 
1341.829 
1341.900 
1341.971 
1342.042 
1342.113 
1342.184 
1342.255 
1342.326 
1342.397 
1342.468 
1342.539 
1342.610 
1342.681 
1342.752 
1342.823 
1342.894 
1342.965 
1343.036 
1343.107 
1343.178 
1343.249 
1343.320 
1343.391 
1343.462 
1343.533 
1343.604 
1343.675 
1343.746 
1343.817 
1343.888 
1343.958 
1344.029 
1344.100 
1344.171 
1344.242 
1344.313 
1344.384 
1344.455 
1344.526 
1344.597 
1344.668 
1344.739 
1344.810 
1344.881 
1344.952 
1345.023 
1345.094 
1345.165 
1345.236 
1345.307 
1345.378 
1345.448 
1345.519 
1345.590 
1345.661 
1345.732 
1345.803 
1345.874 
1345.945 
1346.016 
1346.087 
1346.158 
1346.229 
1346.300 
1346.371 
1346.442 
1346.513 
1346.584 
1346.654 
1346.725 
1346.796 
1346.867 
1346.938 
1347.009 
1347.080 
1347.151 
1347.222 
1347.293 
1347.364 
1347.435 
1347.506 
1347.577 
1347.648 
1347.718 
1347.789 
1347.860 
1347.931 
1348.002 
1348.073 
1348.144 
1348.215 
1348.286 
1348.357 
1348.428 
1348.499 
1348.570 
1348.641 
1348.711 
1348.782 
1348.853 
1348.924 
1348.995 
1349.066 
1349.137 
1349.208 
1349.279 
1349.350 
1349.421 
1349.492 
1349.563 
1349.633 
1349.704 
1349.775 
1349.846 
1349.917 
1349.988 
1350.059 
1350.130 
1350.201 
1350.272 
1350.343 
1350.413 
1350.484 
1350.555 
1350.626 
1350.697 
1350.768 
1350.839 
1350.910 
1350.981 
1351.052 
1351.123 
1351.193 
1351.264 
1351.335 
1351.406 
1351.477 
1351.548 
1351.619 
1351.690 
1351.761 
1351.832 
1351.902 
1351.973 
1352.044 
1352.115 
1352.186 
1352.257 
1352.328 
1352.399 
1352.470 
1352.541 
1352.611 
1352.682 
1352.753 
1352.824 
1352.895 
1352.966 
1353.037 
1353.108 
1353.179 
1353.249 
1353.320 
1353.391 
1353.462 
1353.533 
1353.604 
1353.675 
1353.746 
1353.817 
1353.887 
1353.958 
1354.029 
1354.100 
1354.171 
1354.242 
1354.313 
1354.384 
1354.455 
1354.525 
1354.596 
1354.667 
1354.738 
1354.809 
1354.880 
1354.951 
1355.022 
1355.092 
1355.163 
1355.234 
1355.305 
1355.376 
1355.447 
1355.518 
1355.589 
1355.659 
1355.730 
1355.801 
1355.872 
1355.943 
1356.014 
1356.085 
1356.156 
1356.226 
1356.297 
1356.368 
1356.439 
1356.510 
1356.581 
1356.652 
1356.722 
1356.793 
1356.864 
1356.935 
1357.006 
1357.077 
1357.148 
1357.219 
1357.289 
1357.360 
1357.431 
1357.502 
1357.573 
1357.644 
1357.715 
1357.785 
1357.856 
1357.927 
1357.998 
1358.069 
1358.140 
1358.211 
1358.281 
1358.352 
1358.423 
1358.494 
1358.565 
1358.636 
1358.706 
1358.777 
1358.848 
1358.919 
1358.990 
1359.061 
1359.132 
1359.202 
1359.273 
1359.344 
1359.415 
1359.486 
1359.557 
1359.627 
1359.698 
1359.769 
1359.840 
1359.911 
1359.982 
1360.053 
1360.123 
1360.194 
1360.265 
1360.336 
1360.407 
1360.478 
1360.548 
1360.619 
1360.690 
1360.761 
1360.832 
1360.903 
1360.973 
1361.044 
1361.115 
1361.186 
1361.257 
1361.328 
1361.398 
1361.469 
1361.540 
1361.611 
1361.682 
1361.753 
1361.823 
1361.894 
1361.965 
1362.036 
1362.107 
1362.178 
1362.248 
1362.319 
1362.390 
1362.461 
1362.532 
1362.602 
1362.673 
1362.744 
1362.815 
1362.886 
1362.957 
1363.027 
1363.098 
1363.169 
1363.240 
1363.311 
1363.381 
1363.452 
1363.523 
1363.594 
1363.665 
1363.736 
1363.806 
1363.877 
1363.948 
1364.019 
1364.090 
1364.160 
1364.231 
1364.302 
1364.373 
1364.444 
1364.514 
1364.585 
1364.656 
1364.727 
1364.798 
1364.868 
1364.939 
1365.010 
1365.081 
1365.152 
1365.222 
1365.293 
1365.364 
1365.435 
1365.506 
1365.577 
1365.647 
1365.718 
1365.789 
1365.860 
1365.930 
1366.001 
1366.072 
1366.143 
1366.214 
1366.284 
1366.355 
1366.426 
1366.497 
1366.568 
1366.638 
1366.709 
1366.780 
1366.851 
1366.922 
1366.992 
1367.063 
1367.134 
1367.205 
1367.276 
1367.346 
1367.417 
1367.488 
1367.559 
1367.629 
1367.700 
1367.771 
1367.842 
1367.913 
1367.983 
1368.054 
1368.125 
1368.196 
1368.267 
1368.337 
1368.408 
1368.479 
1368.550 
1368.620 
1368.691 
1368.762 
1368.833 
1368.904 
1368.974 
1369.045 
1369.116 
1369.187 
1369.257 
1369.328 
1369.399 
1369.470 
1369.540 
1369.611 
1369.682 
1369.753 
1369.824 
1369.894 
1369.965 
1370.036 
1370.107 
1370.177 
1370.248 
1370.319 
1370.390 
1370.460 
1370.531 
1370.602 
1370.673 
1370.744 
1370.814 
1370.885 
1370.956 
1371.027 
1371.097 
1371.168 
1371.239 
1371.310 
1371.380 
1371.451 
1371.522 
1371.593 
1371.663 
1371.734 
1371.805 
1371.876 
1371.946 
1372.017 
1372.088 
1372.159 
1372.229 
1372.300 
1372.371 
1372.442 
1372.512 
1372.583 
1372.654 
1372.725 
1372.795 
1372.866 
1372.937 
1373.008 
1373.078 
1373.149 
1373.220 
1373.291 
1373.361 
1373.432 
1373.503 
1373.574 
1373.644 
1373.715 
1373.786 
1373.857 
1373.927 
1373.998 
1374.069 
1374.140 
1374.210 
1374.281 
1374.352 
1374.422 
1374.493 
1374.564 
1374.635 
1374.705 
1374.776 
1374.847 
1374.918 
1374.988 
1375.059 
1375.130 
1375.201 
1375.271 
1375.342 
1375.413 
1375.483 
1375.554 
1375.625 
1375.696 
1375.766 
1375.837 
1375.908 
1375.979 
1376.049 
1376.120 
1376.191 
1376.261 
1376.332 
1376.403 
1376.474 
1376.544 
1376.615 
1376.686 
1376.756 
1376.827 
1376.898 
1376.969 
1377.039 
1377.110 
1377.181 
1377.251 
1377.322 
1377.393 
1377.464 
1377.534 
1377.605 
1377.676 
1377.746 
1377.817 
1377.888 
1377.959 
1378.029 
1378.100 
1378.171 
1378.241 
1378.312 
1378.383 
1378.454 
1378.524 
1378.595 
1378.666 
1378.736 
1378.807 
1378.878 
1378.948 
1379.019 
1379.090 
1379.161 
1379.231 
1379.302 
1379.373 
1379.443 
1379.514 
1379.585 
1379.655 
1379.726 
1379.797 
1379.868 
1379.938 
1380.009 
1380.080 
1380.150 
1380.221 
1380.292 
1380.362 
1380.433 
1380.504 
1380.574 
1380.645 
1380.716 
1380.787 
1380.857 
1380.928 
1380.999 
1381.069 
1381.140 
1381.211 
1381.281 
1381.352 
1381.423 
1381.493 
1381.564 
1381.635 
1381.705 
1381.776 
1381.847 
1381.917 
1381.988 
1382.059 
1382.130 
1382.200 
1382.271 
1382.342 
1382.412 
1382.483 
1382.554 
1382.624 
1382.695 
1382.766 
1382.836 
1382.907 
1382.978 
1383.048 
1383.119 
1383.190 
1383.260 
1383.331 
1383.402 
1383.472 
1383.543 
1383.614 
1383.684 
1383.755 
1383.826 
1383.896 
1383.967 
1384.038 
1384.108 
1384.179 
1384.250 
1384.320 
1384.391 
1384.462 
1384.532 
1384.603 
1384.674 
1384.744 
1384.815 
1384.886 
1384.956 
1385.027 
1385.098 
1385.168 
1385.239 
1385.310 
1385.380 
1385.451 
1385.522 
1385.592 
1385.663 
1385.733 
1385.804 
1385.875 
1385.945 
1386.016 
1386.087 
1386.157 
1386.228 
1386.299 
1386.369 
1386.440 
1386.511 
1386.581 
1386.652 
1386.723 
1386.793 
1386.864 
1386.934 
1387.005 
1387.076 
1387.146 
1387.217 
1387.288 
1387.358 
1387.429 
1387.500 
1387.570 
1387.641 
1387.712 
1387.782 
1387.853 
1387.923 
1387.994 
1388.065 
1388.135 
1388.206 
1388.277 
1388.347 
1388.418 
1388.489 
1388.559 
1388.630 
1388.700 
1388.771 
1388.842 
1388.912 
1388.983 
1389.054 
1389.124 
1389.195 
1389.265 
1389.336 
1389.407 
1389.477 
1389.548 
1389.619 
1389.689 
1389.760 
1389.830 
1389.901 
1389.972 
1390.042 
1390.113 
1390.184 
1390.254 
1390.325 
1390.395 
1390.466 
1390.537 
1390.607 
1390.678 
1390.748 
1390.819 
1390.890 
1390.960 
1391.031 
1391.102 
1391.172 
1391.243 
1391.313 
1391.384 
1391.455 
1391.525 
1391.596 
1391.666 
1391.737 
1391.808 
1391.878 
1391.949 
1392.019 
1392.090 
1392.161 
1392.231 
1392.302 
1392.373 
1392.443 
1392.514 
1392.584 
1392.655 
1392.726 
1392.796 
1392.867 
1392.937 
1393.008 
1393.079 
1393.149 
1393.220 
1393.290 
1393.361 
1393.432 
1393.502 
1393.573 
1393.643 
1393.714 
1393.784 
1393.855 
1393.926 
1393.996 
1394.067 
1394.137 
1394.208 
1394.279 
1394.349 
1394.420 
1394.490 
1394.561 
1394.632 
1394.702 
1394.773 
1394.843 
1394.914 
1394.984 
1395.055 
1395.126 
1395.196 
1395.267 
1395.337 
1395.408 
1395.479 
1395.549 
1395.620 
1395.690 
1395.761 
1395.831 
1395.902 
1395.973 
1396.043 
1396.114 
1396.184 
1396.255 
1396.326 
1396.396 
1396.467 
1396.537 
1396.608 
1396.678 
1396.749 
1396.820 
1396.890 
1396.961 
1397.031 
1397.102 
1397.172 
1397.243 
1397.314 
1397.384 
1397.455 
1397.525 
1397.596 
1397.666 
1397.737 
1397.807 
1397.878 
1397.949 
1398.019 
1398.090 
1398.160 
1398.231 
1398.301 
1398.372 
1398.443 
1398.513 
1398.584 
1398.654 
1398.725 
1398.795 
1398.866 
1398.936 
1399.007 
1399.078 
1399.148 
1399.219 
1399.289 
1399.360 
1399.430 
1399.501 
1399.571 
1399.642 
1399.713 
1399.783 
1399.854 
1399.924 
1399.995 
1400.065 
1400.136 
1400.206 
1400.277 
1400.347 
1400.418 
1400.489 
1400.559 
1400.630 
1400.700 
1400.771 
1400.841 
1400.912 
1400.982 
1401.053 
1401.123 
1401.194 
1401.264 
1401.335 
1401.406 
1401.476 
1401.547 
1401.617 
1401.688 
1401.758 
1401.829 
1401.899 
1401.970 
1402.040 
1402.111 
1402.181 
1402.252 
1402.322 
1402.393 
1402.464 
1402.534 
1402.605 
1402.675 
1402.746 
1402.816 
1402.887 
1402.957 
1403.028 
1403.098 
1403.169 
1403.239 
1403.310 
1403.380 
1403.451 
1403.521 
1403.592 
1403.662 
1403.733 
1403.804 
1403.874 
1403.945 
1404.015 
1404.086 
1404.156 
1404.227 
1404.297 
1404.368 
1404.438 
1404.509 
1404.579 
1404.650 
1404.720 
1404.791 
1404.861 
1404.932 
1405.002 
1405.073 
1405.143 
1405.214 
1405.284 
1405.355 
1405.425 
1405.496 
1405.566 
1405.637 
1405.707 
1405.778 
1405.848 
1405.919 
1405.989 
1406.060 
1406.130 
1406.201 
1406.271 
1406.342 
1406.412 
1406.483 
1406.553 
1406.624 
1406.694 
1406.765 
1406.835 
1406.906 
1406.976 
1407.047 
1407.117 
1407.188 
1407.258 
1407.329 
1407.399 
1407.470 
1407.540 
1407.611 
1407.681 
1407.752 
1407.822 
1407.893 
1407.963 
1408.034 
1408.104 
1408.175 
1408.245 
1408.316 
1408.386 
1408.457 
1408.527 
1408.598 
1408.668 
1408.739 
1408.809 
1408.880 
1408.950 
1409.021 
1409.091 
1409.162 
1409.232 
1409.303 
1409.373 
1409.443 
1409.514 
1409.584 
1409.655 
1409.725 
1409.796 
1409.866 
1409.937 
1410.007 
1410.078 
1410.148 
1410.219 
1410.289 
1410.360 
1410.430 
1410.501 
1410.571 
1410.642 
1410.712 
1410.782 
1410.853 
1410.923 
1410.994 
1411.064 
1411.135 
1411.205 
1411.276 
1411.346 
1411.417 
1411.487 
1411.558 
1411.628 
1411.699 
1411.769 
1411.839 
1411.910 
1411.980 
1412.051 
1412.121 
1412.192 
1412.262 
1412.333 
1412.403 
1412.474 
1412.544 
1412.614 
1412.685 
1412.755 
1412.826 
1412.896 
1412.967 
1413.037 
1413.108 
1413.178 
1413.249 
1413.319 
1413.389 
1413.460 
1413.530 
1413.601 
1413.671 
1413.742 
1413.812 
1413.883 
1413.953 
1414.023 
1414.094 
1414.164 
1414.235 
1414.305 
1414.376 
1414.446 
1414.517 
1414.587 
1414.657 
1414.728 
1414.798 
1414.869 
1414.939 
1415.010 
1415.080 
1415.151 
1415.221 
1415.291 
1415.362 
1415.432 
1415.503 
1415.573 
1415.644 
1415.714 
1415.784 
1415.855 
1415.925 
1415.996 
1416.066 
1416.137 
1416.207 
1416.277 
1416.348 
1416.418 
1416.489 
1416.559 
1416.630 
1416.700 
1416.770 
1416.841 
1416.911 
1416.982 
1417.052 
1417.123 
1417.193 
1417.263 
1417.334 
1417.404 
1417.475 
1417.545 
1417.615 
1417.686 
1417.756 
1417.827 
1417.897 
1417.968 
1418.038 
1418.108 
1418.179 
1418.249 
1418.320 
1418.390 
1418.460 
1418.531 
1418.601 
1418.672 
1418.742 
1418.813 
1418.883 
1418.953 
1419.024 
1419.094 
1419.165 
1419.235 
1419.305 
1419.376 
1419.446 
1419.517 
1419.587 
1419.657 
1419.728 
1419.798 
1419.869 
1419.939 
1420.009 
1420.080 
1420.150 
1420.221 
1420.291 
1420.361 
1420.432 
1420.502 
1420.573 
1420.643 
1420.713 
1420.784 
1420.854 
1420.925 
1420.995 
1421.065 
1421.136 
1421.206 
1421.277 
1421.347 
1421.417 
1421.488 
1421.558 
1421.629 
1421.699 
1421.769 
1421.840 
1421.910 
1421.980 
1422.051 
1422.121 
1422.192 
1422.262 
1422.332 
1422.403 
1422.473 
1422.544 
1422.614 
1422.684 
1422.755 
1422.825 
1422.895 
1422.966 
1423.036 
1423.107 
1423.177 
1423.247 
1423.318 
1423.388 
1423.458 
1423.529 
1423.599 
1423.670 
1423.740 
1423.810 
1423.881 
1423.951 
1424.021 
1424.092 
1424.162 
1424.233 
1424.303 
1424.373 
1424.444 
1424.514 
1424.584 
1424.655 
1424.725 
1424.795 
1424.866 
1424.936 
1425.007 
1425.077 
1425.147 
1425.218 
1425.288 
1425.358 
1425.429 
1425.499 
1425.569 
1425.640 
1425.710 
1425.781 
1425.851 
1425.921 
1425.992 
1426.062 
1426.132 
1426.203 
1426.273 
1426.343 
1426.414 
1426.484 
1426.554 
1426.625 
1426.695 
1426.766 
1426.836 
1426.906 
1426.977 
1427.047 
1427.117 
1427.188 
1427.258 
1427.328 
1427.399 
1427.469 
1427.539 
1427.610 
1427.680 
1427.750 
1427.821 
1427.891 
1427.961 
1428.032 
1428.102 
1428.172 
1428.243 
1428.313 
1428.383 
1428.454 
1428.524 
1428.594 
1428.665 
1428.735 
1428.806 
1428.876 
1428.946 
1429.017 
1429.087 
1429.157 
1429.228 
1429.298 
1429.368 
1429.439 
1429.509 
1429.579 
1429.649 
1429.720 
1429.790 
1429.860 
1429.931 
1430.001 
1430.071 
1430.142 
1430.212 
1430.282 
1430.353 
1430.423 
1430.493 
1430.564 
1430.634 
1430.704 
1430.775 
1430.845 
1430.915 
1430.986 
1431.056 
1431.126 
1431.197 
1431.267 
1431.337 
1431.408 
1431.478 
1431.548 
1431.619 
1431.689 
1431.759 
1431.829 
1431.900 
1431.970 
1432.040 
1432.111 
1432.181 
1432.251 
1432.322 
1432.392 
1432.462 
1432.533 
1432.603 
1432.673 
1432.744 
1432.814 
1432.884 
1432.954 
1433.025 
1433.095 
1433.165 
1433.236 
1433.306 
1433.376 
1433.447 
1433.517 
1433.587 
1433.657 
1433.728 
1433.798 
1433.868 
1433.939 
1434.009 
1434.079 
1434.150 
1434.220 
1434.290 
1434.360 
1434.431 
1434.501 
1434.571 
1434.642 
1434.712 
1434.782 
1434.853 
1434.923 
1434.993 
1435.063 
1435.134 
1435.204 
1435.274 
1435.345 
1435.415 
1435.485 
1435.555 
1435.626 
1435.696 
1435.766 
1435.837 
1435.907 
1435.977 
1436.047 
1436.118 
1436.188 
1436.258 
1436.329 
1436.399 
1436.469 
1436.539 
1436.610 
1436.680 
1436.750 
1436.820 
1436.891 
1436.961 
1437.031 
1437.102 
1437.172 
1437.242 
1437.312 
1437.383 
1437.453 
1437.523 
1437.593 
1437.664 
1437.734 
1437.804 
1437.875 
1437.945 
1438.015 
1438.085 
1438.156 
1438.226 
1438.296 
1438.366 
1438.437 
1438.507 
1438.577 
1438.648 
1438.718 
1438.788 
1438.858 
1438.929 
1438.999 
1439.069 
1439.139 
1439.210 
1439.280 
1439.350 
1439.420 
1439.491 
1439.561 
1439.631 
1439.701 
1439.772 
1439.842 
1439.912 
1439.982 
1440.053 
1440.123 
1440.193 
1440.263 
1440.334 
1440.404 
1440.474 
1440.544 
1440.615 
1440.685 
1440.755 
1440.825 
1440.896 
1440.966 
1441.036 
1441.106 
1441.177 
1441.247 
1441.317 
1441.387 
1441.458 
1441.528 
1441.598 
1441.668 
1441.739 
1441.809 
1441.879 
1441.949 
1442.020 
1442.090 
1442.160 
1442.230 
1442.301 
1442.371 
1442.441 
1442.511 
1442.581 
1442.652 
1442.722 
1442.792 
1442.862 
1442.933 
1443.003 
1443.073 
1443.143 
1443.214 
1443.284 
1443.354 
1443.424 
1443.494 
1443.565 
1443.635 
1443.705 
1443.775 
1443.846 
1443.916 
1443.986 
1444.056 
1444.127 
1444.197 
1444.267 
1444.337 
1444.407 
1444.478 
1444.548 
1444.618 
1444.688 
1444.758 
1444.829 
1444.899 
1444.969 
1445.039 
1445.110 
1445.180 
1445.250 
1445.320 
1445.390 
1445.461 
1445.531 
1445.601 
1445.671 
1445.742 
1445.812 
1445.882 
1445.952 
1446.022 
1446.093 
1446.163 
1446.233 
1446.303 
1446.373 
1446.444 
1446.514 
1446.584 
1446.654 
1446.724 
1446.795 
1446.865 
1446.935 
1447.005 
1447.075 
1447.146 
1447.216 
1447.286 
1447.356 
1447.426 
1447.497 
1447.567 
1447.637 
1447.707 
1447.777 
1447.848 
1447.918 
1447.988 
1448.058 
1448.128 
1448.199 
1448.269 
1448.339 
1448.409 
1448.479 
1448.550 
1448.620 
1448.690 
1448.760 
1448.830 
1448.901 
1448.971 
1449.041 
1449.111 
1449.181 
1449.251 
1449.322 
1449.392 
1449.462 
1449.532 
1449.602 
1449.673 
1449.743 
1449.813 
1449.883 
1449.953 
1450.023 
1450.094 
1450.164 
1450.234 
1450.304 
1450.374 
1450.445 
1450.515 
1450.585 
1450.655 
1450.725 
1450.795 
1450.866 
1450.936 
1451.006 
1451.076 
1451.146 
1451.216 
1451.287 
1451.357 
1451.427 
1451.497 
1451.567 
1451.637 
1451.708 
1451.778 
1451.848 
1451.918 
1451.988 
1452.058 
1452.129 
1452.199 
1452.269 
1452.339 
1452.409 
1452.479 
1452.550 
1452.620 
1452.690 
1452.760 
1452.830 
1452.900 
1452.971 
1453.041 
1453.111 
1453.181 
1453.251 
1453.321 
1453.391 
1453.462 
1453.532 
1453.602 
1453.672 
1453.742 
1453.812 
1453.883 
1453.953 
1454.023 
1454.093 
1454.163 
1454.233 
1454.303 
1454.374 
1454.444 
1454.514 
1454.584 
1454.654 
1454.724 
1454.794 
1454.865 
1454.935 
1455.005 
1455.075 
1455.145 
1455.215 
1455.285 
1455.356 
1455.426 
1455.496 
1455.566 
1455.636 
1455.706 
1455.776 
1455.847 
1455.917 
1455.987 
1456.057 
1456.127 
1456.197 
1456.267 
1456.338 
1456.408 
1456.478 
1456.548 
1456.618 
1456.688 
1456.758 
1456.828 
1456.899 
1456.969 
1457.039 
1457.109 
1457.179 
1457.249 
1457.319 
1457.389 
1457.460 
1457.530 
1457.600 
1457.670 
1457.740 
1457.810 
1457.880 
1457.950 
1458.021 
1458.091 
1458.161 
1458.231 
1458.301 
1458.371 
1458.441 
1458.511 
1458.582 
1458.652 
1458.722 
1458.792 
1458.862 
1458.932 
1459.002 
1459.072 
1459.142 
1459.213 
1459.283 
1459.353 
1459.423 
1459.493 
1459.563 
1459.633 
1459.703 
1459.773 
1459.844 
1459.914 
1459.984 
1460.054 
1460.124 
1460.194 
1460.264 
1460.334 
1460.404 
1460.475 
1460.545 
1460.615 
1460.685 
1460.755 
1460.825 
1460.895 
1460.965 
1461.035 
1461.105 
1461.176 
1461.246 
1461.316 
1461.386 
1461.456 
1461.526 
1461.596 
1461.666 
1461.736 
1461.806 
1461.876 
1461.947 
1462.017 
1462.087 
1462.157 
1462.227 
1462.297 
1462.367 
1462.437 
1462.507 
1462.577 
1462.647 
1462.718 
1462.788 
1462.858 
1462.928 
1462.998 
1463.068 
1463.138 
1463.208 
1463.278 
1463.348 
1463.418 
1463.488 
1463.559 
1463.629 
1463.699 
1463.769 
1463.839 
1463.909 
1463.979 
1464.049 
1464.119 
1464.189 
1464.259 
1464.329 
1464.399 
1464.470 
1464.540 
1464.610 
1464.680 
1464.750 
1464.820 
1464.890 
1464.960 
1465.030 
1465.100 
1465.170 
1465.240 
1465.310 
1465.380 
1465.451 
1465.521 
1465.591 
1465.661 
1465.731 
1465.801 
1465.871 
1465.941 
1466.011 
1466.081 
1466.151 
1466.221 
1466.291 
1466.361 
1466.431 
1466.501 
1466.572 
1466.642 
1466.712 
1466.782 
1466.852 
1466.922 
1466.992 
1467.062 
1467.132 
1467.202 
1467.272 
1467.342 
1467.412 
1467.482 
1467.552 
1467.622 
1467.692 
1467.762 
1467.832 
1467.903 
1467.973 
1468.043 
1468.113 
1468.183 
1468.253 
1468.323 
1468.393 
1468.463 
1468.533 
1468.603 
1468.673 
1468.743 
1468.813 
1468.883 
1468.953 
1469.023 
1469.093 
1469.163 
1469.233 
1469.303 
1469.373 
1469.443 
1469.513 
1469.584 
1469.654 
1469.724 
1469.794 
1469.864 
1469.934 
1470.004 
1470.074 
1470.144 
1470.214 
1470.284 
1470.354 
1470.424 
1470.494 
1470.564 
1470.634 
1470.704 
1470.774 
1470.844 
1470.914 
1470.984 
1471.054 
1471.124 
1471.194 
1471.264 
1471.334 
1471.404 
1471.474 
1471.544 
1471.614 
1471.684 
1471.754 
1471.824 
1471.894 
1471.964 
1472.034 
1472.104 
1472.174 
1472.244 
1472.315 
1472.385 
1472.455 
1472.525 
1472.595 
1472.665 
1472.735 
1472.805 
1472.875 
1472.945 
1473.015 
1473.085 
1473.155 
1473.225 
1473.295 
1473.365 
1473.435 
1473.505 
1473.575 
1473.645 
1473.715 
1473.785 
1473.855 
1473.925 
1473.995 
1474.065 
1474.135 
1474.205 
1474.275 
1474.345 
1474.415 
1474.485 
1474.555 
1474.625 
1474.695 
1474.765 
1474.835 
1474.905 
1474.975 
1475.045 
1475.115 
1475.185 
1475.255 
1475.325 
1475.395 
1475.465 
1475.535 
1475.605 
1475.675 
1475.745 
1475.815 
1475.885 
1475.955 
1476.025 
1476.095 
1476.165 
1476.235 
1476.305 
1476.375 
1476.445 
1476.514 
1476.584 
1476.654 
1476.724 
1476.794 
1476.864 
1476.934 
1477.004 
1477.074 
1477.144 
1477.214 
1477.284 
1477.354 
1477.424 
1477.494 
1477.564 
1477.634 
1477.704 
1477.774 
1477.844 
1477.914 
1477.984 
1478.054 
1478.124 
1478.194 
1478.264 
1478.334 
1478.404 
1478.474 
1478.544 
1478.614 
1478.684 
1478.754 
1478.824 
1478.894 
1478.964 
1479.034 
1479.104 
1479.174 
1479.243 
1479.313 
1479.383 
1479.453 
1479.523 
1479.593 
1479.663 
1479.733 
1479.803 
1479.873 
1479.943 
1480.013 
1480.083 
1480.153 
1480.223 
1480.293 
1480.363 
1480.433 
1480.503 
1480.573 
1480.643 
1480.713 
1480.783 
1480.853 
1480.922 
1480.992 
1481.062 
1481.132 
1481.202 
1481.272 
1481.342 
1481.412 
1481.482 
1481.552 
1481.622 
1481.692 
1481.762 
1481.832 
1481.902 
1481.972 
1482.042 
1482.112 
1482.182 
1482.251 
1482.321 
1482.391 
1482.461 
1482.531 
1482.601 
1482.671 
1482.741 
1482.811 
1482.881 
1482.951 
1483.021 
1483.091 
1483.161 
1483.231 
1483.301 
1483.370 
1483.440 
1483.510 
1483.580 
1483.650 
1483.720 
1483.790 
1483.860 
1483.930 
1484.000 
1484.070 
1484.140 
1484.210 
1484.280 
1484.349 
1484.419 
1484.489 
1484.559 
1484.629 
1484.699 
1484.769 
1484.839 
1484.909 
1484.979 
1485.049 
1485.119 
1485.189 
1485.258 
1485.328 
1485.398 
1485.468 
1485.538 
1485.608 
1485.678 
1485.748 
1485.818 
1485.888 
1485.958 
1486.028 
1486.097 
1486.167 
1486.237 
1486.307 
1486.377 
1486.447 
1486.517 
1486.587 
1486.657 
1486.727 
1486.797 
1486.867 
1486.936 
1487.006 
1487.076 
1487.146 
1487.216 
1487.286 
1487.356 
1487.426 
1487.496 
1487.566 
1487.635 
1487.705 
1487.775 
1487.845 
1487.915 
1487.985 
1488.055 
1488.125 
1488.195 
1488.265 
1488.334 
1488.404 
1488.474 
1488.544 
1488.614 
1488.684 
1488.754 
1488.824 
1488.894 
1488.964 
1489.033 
1489.103 
1489.173 
1489.243 
1489.313 
1489.383 
1489.453 
1489.523 
1489.593 
1489.662 
1489.732 
1489.802 
1489.872 
1489.942 
1490.012 
1490.082 
1490.152 
1490.221 
1490.291 
1490.361 
1490.431 
1490.501 
1490.571 
1490.641 
1490.711 
1490.781 
1490.850 
1490.920 
1490.990 
1491.060 
1491.130 
1491.200 
1491.270 
1491.340 
1491.409 
1491.479 
1491.549 
1491.619 
1491.689 
1491.759 
1491.829 
1491.899 
1491.968 
1492.038 
1492.108 
1492.178 
1492.248 
1492.318 
1492.388 
1492.457 
1492.527 
1492.597 
1492.667 
1492.737 
1492.807 
1492.877 
1492.947 
1493.016 
1493.086 
1493.156 
1493.226 
1493.296 
1493.366 
1493.436 
1493.505 
1493.575 
1493.645 
1493.715 
1493.785 
1493.855 
1493.925 
1493.994 
1494.064 
1494.134 
1494.204 
1494.274 
1494.344 
1494.414 
1494.483 
1494.553 
1494.623 
1494.693 
1494.763 
1494.833 
1494.902 
1494.972 
1495.042 
1495.112 
1495.182 
1495.252 
1495.322 
1495.391 
1495.461 
1495.531 
1495.601 
1495.671 
1495.741 
1495.810 
1495.880 
1495.950 
1496.020 
1496.090 
1496.160 
1496.230 
1496.299 
1496.369 
1496.439 
1496.509 
1496.579 
1496.649 
1496.718 
1496.788 
1496.858 
1496.928 
1496.998 
1497.068 
1497.137 
1497.207 
1497.277 
1497.347 
1497.417 
1497.487 
1497.556 
1497.626 
1497.696 
1497.766 
1497.836 
1497.905 
1497.975 
1498.045 
1498.115 
1498.185 
1498.255 
1498.324 
1498.394 
1498.464 
1498.534 
1498.604 
1498.674 
1498.743 
1498.813 
1498.883 
1498.953 
1499.023 
1499.092 
1499.162 
1499.232 
1499.302 
1499.372 
1499.442 
1499.511 
1499.581 
1499.651 
1499.721 
1499.791 
1499.860 
1499.930 
1500.000 
1500.070 
1500.140 
1500.209 
1500.279 
1500.349 
1500.419 
1500.489 
1500.558 
1500.628 
1500.698 
1500.768 
1500.838 
1500.908 
1500.977 
1501.047 
1501.117 
1501.187 
1501.257 
1501.326 
1501.396 
1501.466 
1501.536 
1501.606 
1501.675 
1501.745 
1501.815 
1501.885 
1501.955 
1502.024 
1502.094 
1502.164 
1502.234 
1502.303 
1502.373 
1502.443 
1502.513 
1502.583 
1502.652 
1502.722 
1502.792 
1502.862 
1502.932 
1503.001 
1503.071 
1503.141 
1503.211 
1503.281 
1503.350 
1503.420 
1503.490 
1503.560 
1503.629 
1503.699 
1503.769 
1503.839 
1503.909 
1503.978 
1504.048 
1504.118 
1504.188 
1504.257 
1504.327 
1504.397 
1504.467 
1504.537 
1504.606 
1504.676 
1504.746 
1504.816 
1504.885 
1504.955 
1505.025 
1505.095 
1505.165 
1505.234 
1505.304 
1505.374 
1505.444 
1505.513 
1505.583 
1505.653 
1505.723 
1505.793 
1505.862 
1505.932 
1506.002 
1506.072 
1506.141 
1506.211 
1506.281 
1506.351 
1506.420 
1506.490 
1506.560 
1506.630 
1506.699 
1506.769 
1506.839 
1506.909 
1506.978 
1507.048 
1507.118 
1507.188 
1507.258 
1507.327 
1507.397 
1507.467 
1507.537 
1507.606 
1507.676 
1507.746 
1507.816 
1507.885 
1507.955 
1508.025 
1508.095 
1508.164 
1508.234 
1508.304 
1508.374 
1508.443 
1508.513 
1508.583 
1508.653 
1508.722 
1508.792 
1508.862 
1508.932 
1509.001 
1509.071 
1509.141 
1509.210 
1509.280 
1509.350 
1509.420 
1509.489 
1509.559 
1509.629 
1509.699 
1509.768 
1509.838 
1509.908 
1509.978 
1510.047 
1510.117 
1510.187 
1510.257 
1510.326 
1510.396 
1510.466 
1510.536 
1510.605 
1510.675 
1510.745 
1510.814 
1510.884 
1510.954 
1511.024 
1511.093 
1511.163 
1511.233 
1511.303 
1511.372 
1511.442 
1511.512 
1511.581 
1511.651 
1511.721 
1511.791 
1511.860 
1511.930 
1512.000 
1512.069 
1512.139 
1512.209 
1512.279 
1512.348 
1512.418 
1512.488 
1512.558 
1512.627 
1512.697 
1512.767 
1512.836 
1512.906 
1512.976 
1513.046 
1513.115 
1513.185 
1513.255 
1513.324 
1513.394 
1513.464 
1513.534 
1513.603 
1513.673 
1513.743 
1513.812 
1513.882 
1513.952 
1514.021 
1514.091 
1514.161 
1514.231 
1514.300 
1514.370 
1514.440 
1514.509 
1514.579 
1514.649 
1514.719 
1514.788 
1514.858 
1514.928 
1514.997 
1515.067 
1515.137 
1515.206 
1515.276 
1515.346 
1515.415 
1515.485 
1515.555 
1515.625 
1515.694 
1515.764 
1515.834 
1515.903 
1515.973 
1516.043 
1516.112 
1516.182 
1516.252 
1516.322 
1516.391 
1516.461 
1516.531 
1516.600 
1516.670 
1516.740 
1516.809 
1516.879 
1516.949 
1517.018 
1517.088 
1517.158 
1517.227 
1517.297 
1517.367 
1517.436 
1517.506 
1517.576 
1517.646 
1517.715 
1517.785 
1517.855 
1517.924 
1517.994 
1518.064 
1518.133 
1518.203 
1518.273 
1518.342 
1518.412 
1518.482 
1518.551 
1518.621 
1518.691 
1518.760 
1518.830 
1518.900 
1518.969 
1519.039 
1519.109 
1519.178 
1519.248 
1519.318 
1519.387 
1519.457 
1519.527 
1519.596 
1519.666 
1519.736 
1519.805 
1519.875 
1519.945 
1520.014 
1520.084 
1520.154 
1520.223 
1520.293 
1520.363 
1520.432 
1520.502 
1520.572 
1520.641 
1520.711 
1520.781 
1520.850 
1520.920 
1520.990 
1521.059 
1521.129 
1521.198 
1521.268 
1521.338 
1521.407 
1521.477 
1521.547 
1521.616 
1521.686 
1521.756 
1521.825 
1521.895 
1521.965 
1522.034 
1522.104 
1522.174 
1522.243 
1522.313 
1522.383 
1522.452 
1522.522 
1522.591 
1522.661 
1522.731 
1522.800 
1522.870 
1522.940 
1523.009 
1523.079 
1523.149 
1523.218 
1523.288 
1523.357 
1523.427 
1523.497 
1523.566 
1523.636 
1523.706 
1523.775 
1523.845 
1523.915 
1523.984 
1524.054 
1524.123 
1524.193 
1524.263 
1524.332 
1524.402 
1524.472 
1524.541 
1524.611 
1524.680 
1524.750 
1524.820 
1524.889 
1524.959 
1525.029 
1525.098 
1525.168 
1525.238 
1525.307 
1525.377 
1525.446 
1525.516 
1525.586 
1525.655 
1525.725 
1525.794 
1525.864 
1525.934 
1526.003 
1526.073 
1526.143 
1526.212 
1526.282 
1526.351 
1526.421 
1526.491 
1526.560 
1526.630 
1526.699 
1526.769 
1526.839 
1526.908 
1526.978 
1527.048 
1527.117 
1527.187 
1527.256 
1527.326 
1527.396 
1527.465 
1527.535 
1527.604 
1527.674 
1527.744 
1527.813 
1527.883 
1527.952 
1528.022 
1528.092 
1528.161 
1528.231 
1528.300 
1528.370 
1528.440 
1528.509 
1528.579 
1528.648 
1528.718 
1528.788 
1528.857 
1528.927 
1528.996 
1529.066 
1529.136 
1529.205 
1529.275 
1529.344 
1529.414 
1529.484 
1529.553 
1529.623 
1529.692 
1529.762 
1529.831 
1529.901 
1529.971 
1530.040 
1530.110 
1530.179 
1530.249 
1530.319 
1530.388 
1530.458 
1530.527 
1530.597 
1530.667 
1530.736 
1530.806 
1530.875 
1530.945 
1531.014 
1531.084 
1531.154 
1531.223 
1531.293 
1531.362 
1531.432 
1531.501 
1531.571 
1531.641 
1531.710 
1531.780 
1531.849 
1531.919 
1531.989 
1532.058 
1532.128 
1532.197 
1532.267 
1532.336 
1532.406 
1532.476 
1532.545 
1532.615 
1532.684 
1532.754 
1532.823 
1532.893 
1532.962 
1533.032 
1533.102 
1533.171 
1533.241 
1533.310 
1533.380 
1533.449 
1533.519 
1533.589 
1533.658 
1533.728 
1533.797 
1533.867 
1533.936 
1534.006 
1534.075 
1534.145 
1534.215 
1534.284 
1534.354 
1534.423 
1534.493 
1534.562 
1534.632 
1534.701 
1534.771 
1534.841 
1534.910 
1534.980 
1535.049 
1535.119 
1535.188 
1535.258 
1535.327 
1535.397 
1535.467 
1535.536 
1535.606 
1535.675 
1535.745 
1535.814 
1535.884 
1535.953 
1536.023 
1536.092 
1536.162 
1536.231 
1536.301 
1536.371 
1536.440 
1536.510 
1536.579 
1536.649 
1536.718 
1536.788 
1536.857 
1536.927 
1536.996 
1537.066 
1537.135 
1537.205 
1537.275 
1537.344 
1537.414 
1537.483 
1537.553 
1537.622 
1537.692 
1537.761 
1537.831 
1537.900 
1537.970 
1538.039 
1538.109 
1538.178 
1538.248 
1538.318 
1538.387 
1538.457 
1538.526 
1538.596 
1538.665 
1538.735 
1538.804 
1538.874 
1538.943 
1539.013 
1539.082 
1539.152 
1539.221 
1539.291 
1539.360 
1539.430 
1539.499 
1539.569 
1539.638 
1539.708 
1539.777 
1539.847 
1539.916 
1539.986 
1540.055 
1540.125 
1540.195 
1540.264 
1540.334 
1540.403 
1540.473 
1540.542 
1540.612 
1540.681 
1540.751 
1540.820 
1540.890 
1540.959 
1541.029 
1541.098 
1541.168 
1541.237 
1541.307 
1541.376 
1541.446 
1541.515 
1541.585 
1541.654 
1541.724 
1541.793 
1541.863 
1541.932 
1542.002 
1542.071 
1542.141 
1542.210 
1542.280 
1542.349 
1542.419 
1542.488 
1542.558 
1542.627 
1542.697 
1542.766 
1542.836 
1542.905 
1542.975 
1543.044 
1543.114 
1543.183 
1543.253 
1543.322 
1543.392 
1543.461 
1543.530 
1543.600 
1543.669 
1543.739 
1543.808 
1543.878 
1543.947 
1544.017 
1544.086 
1544.156 
1544.225 
1544.295 
1544.364 
1544.434 
1544.503 
1544.573 
1544.642 
1544.712 
1544.781 
1544.851 
1544.920 
1544.990 
1545.059 
1545.129 
1545.198 
1545.267 
1545.337 
1545.406 
1545.476 
1545.545 
1545.615 
1545.684 
1545.754 
1545.823 
1545.893 
1545.962 
1546.032 
1546.101 
1546.171 
1546.240 
1546.310 
1546.379 
1546.448 
1546.518 
1546.587 
1546.657 
1546.726 
1546.796 
1546.865 
1546.935 
1547.004 
1547.074 
1547.143 
1547.213 
1547.282 
1547.351 
1547.421 
1547.490 
1547.560 
1547.629 
1547.699 
1547.768 
1547.838 
1547.907 
1547.977 
1548.046 
1548.116 
1548.185 
1548.254 
1548.324 
1548.393 
1548.463 
1548.532 
1548.602 
1548.671 
1548.741 
1548.810 
1548.879 
1548.949 
1549.018 
1549.088 
1549.157 
1549.227 
1549.296 
1549.366 
1549.435 
1549.504 
1549.574 
1549.643 
1549.713 
1549.782 
1549.852 
1549.921 
1549.991 
1550.060 
1550.129 
1550.199 
1550.268 
1550.338 
1550.407 
1550.477 
1550.546 
1550.615 
1550.685 
1550.754 
1550.824 
1550.893 
1550.963 
1551.032 
1551.101 
1551.171 
1551.240 
1551.310 
1551.379 
1551.449 
1551.518 
1551.587 
1551.657 
1551.726 
1551.796 
1551.865 
1551.935 
1552.004 
1552.073 
1552.143 
1552.212 
1552.282 
1552.351 
1552.421 
1552.490 
1552.559 
1552.629 
1552.698 
1552.768 
1552.837 
1552.907 
1552.976 
1553.045 
1553.115 
1553.184 
1553.254 
1553.323 
1553.392 
1553.462 
1553.531 
1553.601 
1553.670 
1553.739 
1553.809 
1553.878 
1553.948 
1554.017 
1554.087 
1554.156 
1554.225 
1554.295 
1554.364 
1554.434 
1554.503 
1554.572 
1554.642 
1554.711 
1554.781 
1554.850 
1554.919 
1554.989 
1555.058 
1555.128 
1555.197 
1555.266 
1555.336 
1555.405 
1555.475 
1555.544 
1555.613 
1555.683 
1555.752 
1555.822 
1555.891 
1555.960 
1556.030 
1556.099 
1556.169 
1556.238 
1556.307 
1556.377 
1556.446 
1556.516 
1556.585 
1556.654 
1556.724 
1556.793 
1556.862 
1556.932 
1557.001 
1557.071 
1557.140 
1557.209 
1557.279 
1557.348 
1557.418 
1557.487 
1557.556 
1557.626 
1557.695 
1557.764 
1557.834 
1557.903 
1557.973 
1558.042 
1558.111 
1558.181 
1558.250 
1558.319 
1558.389 
1558.458 
1558.528 
1558.597 
1558.666 
1558.736 
1558.805 
1558.874 
1558.944 
1559.013 
1559.083 
1559.152 
1559.221 
1559.291 
1559.360 
1559.429 
1559.499 
1559.568 
1559.638 
1559.707 
1559.776 
1559.846 
1559.915 
1559.984 
1560.054 
1560.123 
1560.192 
1560.262 
1560.331 
1560.401 
1560.470 
1560.539 
1560.609 
1560.678 
1560.747 
1560.817 
1560.886 
1560.955 
1561.025 
1561.094 
1561.163 
1561.233 
1561.302 
1561.372 
1561.441 
1561.510 
1561.580 
1561.649 
1561.718 
1561.788 
1561.857 
1561.926 
1561.996 
1562.065 
1562.134 
1562.204 
1562.273 
1562.342 
1562.412 
1562.481 
1562.551 
1562.620 
1562.689 
1562.759 
1562.828 
1562.897 
1562.967 
1563.036 
1563.105 
1563.175 
1563.244 
1563.313 
1563.383 
1563.452 
1563.521 
1563.591 
1563.660 
1563.729 
1563.799 
1563.868 
1563.937 
1564.007 
1564.076 
1564.145 
1564.215 
1564.284 
1564.353 
1564.423 
1564.492 
1564.561 
1564.631 
1564.700 
1564.769 
1564.839 
1564.908 
1564.977 
1565.047 
1565.116 
1565.185 
1565.255 
1565.324 
1565.393 
1565.463 
1565.532 
1565.601 
1565.671 
1565.740 
1565.809 
1565.878 
1565.948 
1566.017 
1566.086 
1566.156 
1566.225 
1566.294 
1566.364 
1566.433 
1566.502 
1566.572 
1566.641 
1566.710 
1566.780 
1566.849 
1566.918 
1566.988 
1567.057 
1567.126 
1567.195 
1567.265 
1567.334 
1567.403 
1567.473 
1567.542 
1567.611 
1567.681 
1567.750 
1567.819 
1567.889 
1567.958 
1568.027 
1568.096 
1568.166 
1568.235 
1568.304 
1568.374 
1568.443 
1568.512 
1568.582 
1568.651 
1568.720 
1568.789 
1568.859 
1568.928 
1568.997 
1569.067 
1569.136 
1569.205 
1569.275 
1569.344 
1569.413 
1569.482 
1569.552 
1569.621 
1569.690 
1569.760 
1569.829 
1569.898 
1569.967 
1570.037 
1570.106 
1570.175 
1570.245 
1570.314 
1570.383 
1570.452 
1570.522 
1570.591 
1570.660 
1570.730 
1570.799 
1570.868 
1570.937 
1571.007 
1571.076 
1571.145 
1571.215 
1571.284 
1571.353 
1571.422 
1571.492 
1571.561 
1571.630 
1571.700 
1571.769 
1571.838 
1571.907 
1571.977 
1572.046 
1572.115 
1572.184 
1572.254 
1572.323 
1572.392 
1572.462 
1572.531 
1572.600 
1572.669 
1572.739 
1572.808 
1572.877 
1572.946 
1573.016 
1573.085 
1573.154 
1573.224 
1573.293 
1573.362 
1573.431 
1573.501 
1573.570 
1573.639 
1573.708 
1573.778 
1573.847 
1573.916 
1573.985 
1574.055 
1574.124 
1574.193 
1574.262 
1574.332 
1574.401 
1574.470 
1574.539 
1574.609 
1574.678 
1574.747 
1574.817 
1574.886 
1574.955 
1575.024 
1575.094 
1575.163 
1575.232 
1575.301 
1575.371 
1575.440 
1575.509 
1575.578 
1575.648 
1575.717 
1575.786 
1575.855 
1575.924 
1575.994 
1576.063 
1576.132 
1576.201 
1576.271 
1576.340 
1576.409 
1576.478 
1576.548 
1576.617 
1576.686 
1576.755 
1576.825 
1576.894 
1576.963 
1577.032 
1577.102 
1577.171 
1577.240 
1577.309 
1577.379 
1577.448 
1577.517 
1577.586 
1577.655 
1577.725 
1577.794 
1577.863 
1577.932 
1578.002 
1578.071 
1578.140 
1578.209 
1578.279 
1578.348 
1578.417 
1578.486 
1578.555 
1578.625 
1578.694 
1578.763 
1578.832 
1578.902 
1578.971 
1579.040 
1579.109 
1579.178 
1579.248 
1579.317 
1579.386 
1579.455 
1579.525 
1579.594 
1579.663 
1579.732 
1579.801 
1579.871 
1579.940 
1580.009 
1580.078 
1580.147 
1580.217 
1580.286 
1580.355 
1580.424 
1580.494 
1580.563 
1580.632 
1580.701 
1580.770 
1580.840 
1580.909 
1580.978 
1581.047 
1581.116 
1581.186 
1581.255 
1581.324 
1581.393 
1581.462 
1581.532 
1581.601 
1581.670 
1581.739 
1581.808 
1581.878 
1581.947 
1582.016 
1582.085 
1582.154 
1582.224 
1582.293 
1582.362 
1582.431 
1582.500 
1582.570 
1582.639 
1582.708 
1582.777 
1582.846 
1582.916 
1582.985 
1583.054 
1583.123 
1583.192 
1583.262 
1583.331 
1583.400 
1583.469 
1583.538 
1583.608 
1583.677 
1583.746 
1583.815 
1583.884 
1583.953 
1584.023 
1584.092 
1584.161 
1584.230 
1584.299 
1584.369 
1584.438 
1584.507 
1584.576 
1584.645 
1584.714 
1584.784 
1584.853 
1584.922 
1584.991 
1585.060 
1585.130 
1585.199 
1585.268 
1585.337 
1585.406 
1585.475 
1585.545 
1585.614 
1585.683 
1585.752 
1585.821 
1585.890 
1585.960 
1586.029 
1586.098 
1586.167 
1586.236 
1586.305 
1586.375 
1586.444 
1586.513 
1586.582 
1586.651 
1586.720 
1586.790 
1586.859 
1586.928 
1586.997 
1587.066 
1587.135 
1587.205 
1587.274 
1587.343 
1587.412 
1587.481 
1587.550 
1587.620 
1587.689 
1587.758 
1587.827 
1587.896 
1587.965 
1588.035 
1588.104 
1588.173 
1588.242 
1588.311 
1588.380 
1588.449 
1588.519 
1588.588 
1588.657 
1588.726 
1588.795 
1588.864 
1588.933 
1589.003 
1589.072 
1589.141 
1589.210 
1589.279 
1589.348 
1589.417 
1589.487 
1589.556 
1589.625 
1589.694 
1589.763 
1589.832 
1589.901 
1589.971 
1590.040 
1590.109 
1590.178 
1590.247 
1590.316 
1590.385 
1590.455 
1590.524 
1590.593 
1590.662 
1590.731 
1590.800 
1590.869 
1590.939 
1591.008 
1591.077 
1591.146 
1591.215 
1591.284 
1591.353 
1591.422 
1591.492 
1591.561 
1591.630 
1591.699 
1591.768 
1591.837 
1591.906 
1591.975 
1592.045 
1592.114 
1592.183 
1592.252 
1592.321 
1592.390 
1592.459 
1592.528 
1592.598 
1592.667 
1592.736 
1592.805 
1592.874 
1592.943 
1593.012 
1593.081 
1593.151 
1593.220 
1593.289 
1593.358 
1593.427 
1593.496 
1593.565 
1593.634 
1593.703 
1593.773 
1593.842 
1593.911 
1593.980 
1594.049 
1594.118 
1594.187 
1594.256 
1594.325 
1594.395 
1594.464 
1594.533 
1594.602 
1594.671 
1594.740 
1594.809 
1594.878 
1594.947 
1595.016 
1595.086 
1595.155 
1595.224 
1595.293 
1595.362 
1595.431 
1595.500 
1595.569 
1595.638 
1595.707 
1595.777 
1595.846 
1595.915 
1595.984 
1596.053 
1596.122 
1596.191 
1596.260 
1596.329 
1596.398 
1596.468 
1596.537 
1596.606 
1596.675 
1596.744 
1596.813 
1596.882 
1596.951 
1597.020 
1597.089 
1597.158 
1597.228 
1597.297 
1597.366 
1597.435 
1597.504 
1597.573 
1597.642 
1597.711 
1597.780 
1597.849 
1597.918 
1597.987 
1598.057 
1598.126 
1598.195 
1598.264 
1598.333 
1598.402 
1598.471 
1598.540 
1598.609 
1598.678 
1598.747 
1598.816 
1598.885 
1598.955 
1599.024 
1599.093 
1599.162 
1599.231 
1599.300 
1599.369 
1599.438 
1599.507 
1599.576 
1599.645 
1599.714 
1599.783 
1599.852 
1599.921 
1599.991 
1600.060 
1600.129 
1600.198 
1600.267 
1600.336 
1600.405 
1600.474 
1600.543 
1600.612 
1600.681 
1600.750 
1600.819 
1600.888 
1600.957 
1601.026 
1601.096 
1601.165 
1601.234 
1601.303 
1601.372 
1601.441 
1601.510 
1601.579 
1601.648 
1601.717 
1601.786 
1601.855 
1601.924 
1601.993 
1602.062 
1602.131 
1602.200 
1602.269 
1602.338 
1602.408 
1602.477 
1602.546 
1602.615 
1602.684 
1602.753 
1602.822 
1602.891 
1602.960 
1603.029 
1603.098 
1603.167 
1603.236 
1603.305 
1603.374 
1603.443 
1603.512 
1603.581 
1603.650 
1603.719 
1603.788 
1603.857 
1603.926 
1603.995 
1604.064 
1604.134 
1604.203 
1604.272 
1604.341 
1604.410 
1604.479 
1604.548 
1604.617 
1604.686 
1604.755 
1604.824 
1604.893 
1604.962 
1605.031 
1605.100 
1605.169 
1605.238 
1605.307 
1605.376 
1605.445 
1605.514 
1605.583 
1605.652 
1605.721 
1605.790 
1605.859 
1605.928 
1605.997 
1606.066 
1606.135 
1606.204 
1606.273 
1606.342 
1606.411 
1606.480 
1606.549 
1606.618 
1606.687 
1606.756 
1606.825 
1606.894 
1606.963 
1607.033 
1607.102 
1607.171 
1607.240 
1607.309 
1607.378 
1607.447 
1607.516 
1607.585 
1607.654 
1607.723 
1607.792 
1607.861 
1607.930 
1607.999 
1608.068 
1608.137 
1608.206 
1608.275 
1608.344 
1608.413 
1608.482 
1608.551 
1608.620 
1608.689 
1608.758 
1608.827 
1608.896 
1608.965 
1609.034 
1609.103 
1609.172 
1609.241 
1609.310 
1609.379 
1609.448 
1609.517 
1609.586 
1609.655 
1609.724 
1609.793 
1609.862 
1609.931 
1610.000 
1610.069 
1610.138 
1610.207 
1610.276 
1610.345 
1610.413 
1610.482 
1610.551 
1610.620 
1610.689 
1610.758 
1610.827 
1610.896 
1610.965 
1611.034 
1611.103 
1611.172 
1611.241 
1611.310 
1611.379 
1611.448 
1611.517 
1611.586 
1611.655 
1611.724 
1611.793 
1611.862 
1611.931 
1612.000 
1612.069 
1612.138 
1612.207 
1612.276 
1612.345 
1612.414 
1612.483 
1612.552 
1612.621 
1612.690 
1612.759 
1612.828 
1612.897 
1612.966 
1613.035 
1613.104 
1613.173 
1613.242 
1613.310 
1613.379 
1613.448 
1613.517 
1613.586 
1613.655 
1613.724 
1613.793 
1613.862 
1613.931 
1614.000 
1614.069 
1614.138 
1614.207 
1614.276 
1614.345 
1614.414 
1614.483 
1614.552 
1614.621 
1614.690 
1614.759 
1614.828 
1614.897 
1614.966 
1615.034 
1615.103 
1615.172 
1615.241 
1615.310 
1615.379 
1615.448 
1615.517 
1615.586 
1615.655 
1615.724 
1615.793 
1615.862 
1615.931 
1616.000 
1616.069 
1616.138 
1616.207 
1616.276 
1616.344 
1616.413 
1616.482 
1616.551 
1616.620 
1616.689 
1616.758 
1616.827 
1616.896 
1616.965 
1617.034 
1617.103 
1617.172 
1617.241 
1617.310 
1617.379 
1617.447 
1617.516 
1617.585 
1617.654 
1617.723 
1617.792 
1617.861 
1617.930 
1617.999 
1618.068 
1618.137 
1618.206 
1618.275 
1618.344 
1618.413 
1618.481 
1618.550 
1618.619 
1618.688 
1618.757 
1618.826 
1618.895 
1618.964 
1619.033 
1619.102 
1619.171 
1619.240 
1619.309 
1619.377 
1619.446 
1619.515 
1619.584 
1619.653 
1619.722 
1619.791 
1619.860 
1619.929 
1619.998 
1620.067 
1620.136 
1620.204 
1620.273 
1620.342 
1620.411 
1620.480 
1620.549 
1620.618 
1620.687 
1620.756 
1620.825 
1620.894 
1620.962 
1621.031 
1621.100 
1621.169 
1621.238 
1621.307 
1621.376 
1621.445 
1621.514 
1621.583 
1621.652 
1621.720 
1621.789 
1621.858 
1621.927 
1621.996 
1622.065 
1622.134 
1622.203 
1622.272 
1622.341 
1622.409 
1622.478 
1622.547 
1622.616 
1622.685 
1622.754 
1622.823 
1622.892 
1622.961 
1623.029 
1623.098 
1623.167 
1623.236 
1623.305 
1623.374 
1623.443 
1623.512 
1623.581 
1623.649 
1623.718 
1623.787 
1623.856 
1623.925 
1623.994 
1624.063 
1624.132 
1624.201 
1624.269 
1624.338 
1624.407 
1624.476 
1624.545 
1624.614 
1624.683 
1624.752 
1624.820 
1624.889 
1624.958 
1625.027 
1625.096 
1625.165 
1625.234 
1625.303 
1625.372 
1625.440 
1625.509 
1625.578 
1625.647 
1625.716 
1625.785 
1625.854 
1625.922 
1625.991 
1626.060 
1626.129 
1626.198 
1626.267 
1626.336 
1626.405 
1626.473 
1626.542 
1626.611 
1626.680 
1626.749 
1626.818 
1626.887 
1626.955 
1627.024 
1627.093 
1627.162 
1627.231 
1627.300 
1627.369 
1627.438 
1627.506 
1627.575 
1627.644 
1627.713 
1627.782 
1627.851 
1627.920 
1627.988 
1628.057 
1628.126 
1628.195 
1628.264 
1628.333 
1628.402 
1628.470 
1628.539 
1628.608 
1628.677 
1628.746 
1628.815 
1628.883 
1628.952 
1629.021 
1629.090 
1629.159 
1629.228 
1629.297 
1629.365 
1629.434 
1629.503 
1629.572 
1629.641 
1629.710 
1629.778 
1629.847 
1629.916 
1629.985 
1630.054 
1630.123 
1630.191 
1630.260 
1630.329 
1630.398 
1630.467 
1630.536 
1630.605 
1630.673 
1630.742 
1630.811 
1630.880 
1630.949 
1631.018 
1631.086 
1631.155 
1631.224 
1631.293 
1631.362 
1631.430 
1631.499 
1631.568 
1631.637 
1631.706 
1631.775 
1631.843 
1631.912 
1631.981 
1632.050 
1632.119 
1632.188 
1632.256 
1632.325 
1632.394 
1632.463 
1632.532 
1632.601 
1632.669 
1632.738 
1632.807 
1632.876 
1632.945 
1633.013 
1633.082 
1633.151 
1633.220 
1633.289 
1633.358 
1633.426 
1633.495 
1633.564 
1633.633 
1633.702 
1633.770 
1633.839 
1633.908 
1633.977 
1634.046 
1634.114 
1634.183 
1634.252 
1634.321 
1634.390 
1634.458 
1634.527 
1634.596 
1634.665 
1634.734 
1634.803 
1634.871 
1634.940 
1635.009 
1635.078 
1635.147 
1635.215 
1635.284 
1635.353 
1635.422 
1635.491 
1635.559 
1635.628 
1635.697 
1635.766 
1635.835 
1635.903 
1635.972 
1636.041 
1636.110 
1636.178 
1636.247 
1636.316 
1636.385 
1636.454 
1636.522 
1636.591 
1636.660 
1636.729 
1636.798 
1636.866 
1636.935 
1637.004 
1637.073 
1637.142 
1637.210 
1637.279 
1637.348 
1637.417 
1637.485 
1637.554 
1637.623 
1637.692 
1637.761 
1637.829 
1637.898 
1637.967 
1638.036 
1638.104 
1638.173 
1638.242 
1638.311 
1638.380 
1638.448 
1638.517 
1638.586 
1638.655 
1638.723 
1638.792 
1638.861 
1638.930 
1638.999 
1639.067 
1639.136 
1639.205 
1639.274 
1639.342 
1639.411 
1639.480 
1639.549 
1639.618 
1639.686 
1639.755 
1639.824 
1639.893 
1639.961 
1640.030 
1640.099 
1640.168 
1640.236 
1640.305 
1640.374 
1640.443 
1640.511 
1640.580 
1640.649 
1640.718 
1640.786 
1640.855 
1640.924 
1640.993 
1641.062 
1641.130 
1641.199 
1641.268 
1641.337 
1641.405 
1641.474 
1641.543 
1641.612 
1641.680 
1641.749 
1641.818 
1641.887 
1641.955 
1642.024 
1642.093 
1642.162 
1642.230 
1642.299 
1642.368 
1642.437 
1642.505 
1642.574 
1642.643 
1642.712 
1642.780 
1642.849 
1642.918 
1642.987 
1643.055 
1643.124 
1643.193 
1643.261 
1643.330 
1643.399 
1643.468 
1643.536 
1643.605 
1643.674 
1643.743 
1643.811 
1643.880 
1643.949 
1644.018 
1644.086 
1644.155 
1644.224 
1644.293 
1644.361 
1644.430 
1644.499 
1644.567 
1644.636 
1644.705 
1644.774 
1644.842 
1644.911 
1644.980 
1645.049 
1645.117 
1645.186 
1645.255 
1645.323 
1645.392 
1645.461 
1645.530 
1645.598 
1645.667 
1645.736 
1645.805 
1645.873 
1645.942 
1646.011 
1646.079 
1646.148 
1646.217 
1646.286 
1646.354 
1646.423 
1646.492 
1646.560 
1646.629 
1646.698 
1646.767 
1646.835 
1646.904 
1646.973 
1647.041 
1647.110 
1647.179 
1647.248 
1647.316 
1647.385 
1647.454 
1647.522 
1647.591 
1647.660 
1647.728 
1647.797 
1647.866 
1647.935 
1648.003 
1648.072 
1648.141 
1648.209 
1648.278 
1648.347 
1648.416 
1648.484 
1648.553 
1648.622 
1648.690 
1648.759 
1648.828 
1648.896 
1648.965 
1649.034 
1649.103 
1649.171 
1649.240 
1649.309 
1649.377 
1649.446 
1649.515 
1649.583 
1649.652 
1649.721 
1649.789 
1649.858 
1649.927 
1649.996 
1650.064 
1650.133 
1650.202 
1650.270 
1650.339 
1650.408 
1650.476 
1650.545 
1650.614 
1650.682 
1650.751 
1650.820 
1650.888 
1650.957 
1651.026 
1651.095 
1651.163 
1651.232 
1651.301 
1651.369 
1651.438 
1651.507 
1651.575 
1651.644 
1651.713 
1651.781 
1651.850 
1651.919 
1651.987 
1652.056 
1652.125 
1652.193 
1652.262 
1652.331 
1652.399 
1652.468 
1652.537 
1652.605 
1652.674 
1652.743 
1652.811 
1652.880 
1652.949 
1653.017 
1653.086 
1653.155 
1653.223 
1653.292 
1653.361 
1653.429 
1653.498 
1653.567 
1653.635 
1653.704 
1653.773 
1653.841 
1653.910 
1653.979 
1654.047 
1654.116 
1654.185 
1654.253 
1654.322 
1654.391 
1654.459 
1654.528 
1654.597 
1654.665 
1654.734 
1654.803 
1654.871 
1654.940 
1655.008 
1655.077 
1655.146 
1655.214 
1655.283 
1655.352 
1655.420 
1655.489 
1655.558 
1655.626 
1655.695 
1655.764 
1655.832 
1655.901 
1655.970 
1656.038 
1656.107 
1656.175 
1656.244 
1656.313 
1656.381 
1656.450 
1656.519 
1656.587 
1656.656 
1656.725 
1656.793 
1656.862 
1656.931 
1656.999 
1657.068 
1657.136 
1657.205 
1657.274 
1657.342 
1657.411 
1657.480 
1657.548 
1657.617 
1657.686 
1657.754 
1657.823 
1657.891 
1657.960 
1658.029 
1658.097 
1658.166 
1658.235 
1658.303 
1658.372 
1658.440 
1658.509 
1658.578 
1658.646 
1658.715 
1658.784 
1658.852 
1658.921 
1658.989 
1659.058 
1659.127 
1659.195 
1659.264 
1659.333 
1659.401 
1659.470 
1659.538 
1659.607 
1659.676 
1659.744 
1659.813 
1659.881 
1659.950 
1660.019 
1660.087 
1660.156 
1660.225 
1660.293 
1660.362 
1660.430 
1660.499 
1660.568 
1660.636 
1660.705 
1660.773 
1660.842 
1660.911 
1660.979 
1661.048 
1661.116 
1661.185 
1661.254 
1661.322 
1661.391 
1661.459 
1661.528 
1661.597 
1661.665 
1661.734 
1661.802 
1661.871 
1661.940 
1662.008 
1662.077 
1662.145 
1662.214 
1662.283 
1662.351 
1662.420 
1662.488 
1662.557 
1662.626 
1662.694 
1662.763 
1662.831 
1662.900 
1662.969 
1663.037 
1663.106 
1663.174 
1663.243 
1663.312 
1663.380 
1663.449 
1663.517 
1663.586 
1663.655 
1663.723 
1663.792 
1663.860 
1663.929 
1663.997 
1664.066 
1664.135 
1664.203 
1664.272 
1664.340 
1664.409 
1664.478 
1664.546 
1664.615 
1664.683 
1664.752 
1664.820 
1664.889 
1664.958 
1665.026 
1665.095 
1665.163 
1665.232 
1665.300 
1665.369 
1665.438 
1665.506 
1665.575 
1665.643 
1665.712 
1665.780 
1665.849 
1665.918 
1665.986 
1666.055 
1666.123 
1666.192 
1666.260 
1666.329 
1666.398 
1666.466 
1666.535 
1666.603 
1666.672 
1666.740 
1666.809 
1666.878 
1666.946 
1667.015 
1667.083 
1667.152 
1667.220 
1667.289 
1667.357 
1667.426 
1667.495 
1667.563 
1667.632 
1667.700 
1667.769 
1667.837 
1667.906 
1667.974 
1668.043 
1668.112 
1668.180 
1668.249 
1668.317 
1668.386 
1668.454 
1668.523 
1668.591 
1668.660 
1668.728 
1668.797 
1668.866 
1668.934 
1669.003 
1669.071 
1669.140 
1669.208 
1669.277 
1669.345 
1669.414 
1669.482 
1669.551 
1669.620 
1669.688 
1669.757 
1669.825 
1669.894 
1669.962 
1670.031 
1670.099 
1670.168 
1670.236 
1670.305 
1670.374 
1670.442 
1670.511 
1670.579 
1670.648 
1670.716 
1670.785 
1670.853 
1670.922 
1670.990 
1671.059 
1671.127 
1671.196 
1671.264 
1671.333 
1671.401 
1671.470 
1671.539 
1671.607 
1671.676 
1671.744 
1671.813 
1671.881 
1671.950 
1672.018 
1672.087 
1672.155 
1672.224 
1672.292 
1672.361 
1672.429 
1672.498 
1672.566 
1672.635 
1672.703 
1672.772 
1672.840 
1672.909 
1672.977 
1673.046 
1673.115 
1673.183 
1673.252 
1673.320 
1673.389 
1673.457 
1673.526 
1673.594 
1673.663 
1673.731 
1673.800 
1673.868 
1673.937 
1674.005 
1674.074 
1674.142 
1674.211 
1674.279 
1674.348 
1674.416 
1674.485 
1674.553 
1674.622 
1674.690 
1674.759 
1674.827 
1674.896 
1674.964 
1675.033 
1675.101 
1675.170 
1675.238 
1675.307 
1675.375 
1675.444 
1675.512 
1675.581 
1675.649 
1675.718 
1675.786 
1675.855 
1675.923 
1675.992 
1676.060 
1676.129 
1676.197 
1676.266 
1676.334 
1676.403 
1676.471 
1676.540 
1676.608 
1676.677 
1676.745 
1676.814 
1676.882 
1676.951 
1677.019 
1677.088 
1677.156 
1677.225 
1677.293 
1677.361 
1677.430 
1677.498 
1677.567 
1677.635 
1677.704 
1677.772 
1677.841 
1677.909 
1677.978 
1678.046 
1678.115 
1678.183 
1678.252 
1678.320 
1678.389 
1678.457 
1678.526 
1678.594 
1678.663 
1678.731 
1678.800 
1678.868 
1678.936 
1679.005 
1679.073 
1679.142 
1679.210 
1679.279 
1679.347 
1679.416 
1679.484 
1679.553 
1679.621 
1679.690 
1679.758 
1679.827 
1679.895 
1679.963 
1680.032 
1680.100 
1680.169 
1680.237 
1680.306 
1680.374 
1680.443 
1680.511 
1680.580 
1680.648 
1680.717 
1680.785 
1680.853 
1680.922 
1680.990 
1681.059 
1681.127 
1681.196 
1681.264 
1681.333 
1681.401 
1681.470 
1681.538 
1681.606 
1681.675 
1681.743 
1681.812 
1681.880 
1681.949 
1682.017 
1682.086 
1682.154 
1682.222 
1682.291 
1682.359 
1682.428 
1682.496 
1682.565 
1682.633 
1682.702 
1682.770 
1682.838 
1682.907 
1682.975 
1683.044 
1683.112 
1683.181 
1683.249 
1683.318 
1683.386 
1683.454 
1683.523 
1683.591 
1683.660 
1683.728 
1683.797 
1683.865 
1683.933 
1684.002 
1684.070 
1684.139 
1684.207 
1684.276 
1684.344 
1684.412 
1684.481 
1684.549 
1684.618 
1684.686 
1684.755 
1684.823 
1684.891 
1684.960 
1685.028 
1685.097 
1685.165 
1685.234 
1685.302 
1685.370 
1685.439 
1685.507 
1685.576 
1685.644 
1685.713 
1685.781 
1685.849 
1685.918 
1685.986 
1686.055 
1686.123 
1686.191 
1686.260 
1686.328 
1686.397 
1686.465 
1686.534 
1686.602 
1686.670 
1686.739 
1686.807 
1686.876 
1686.944 
1687.012 
1687.081 
1687.149 
1687.218 
1687.286 
1687.354 
1687.423 
1687.491 
1687.560 
1687.628 
1687.697 
1687.765 
1687.833 
1687.902 
1687.970 
1688.039 
1688.107 
1688.175 
1688.244 
1688.312 
1688.381 
1688.449 
1688.517 
1688.586 
1688.654 
1688.723 
1688.791 
1688.859 
1688.928 
1688.996 
1689.065 
1689.133 
1689.201 
1689.270 
1689.338 
1689.406 
1689.475 
1689.543 
1689.612 
1689.680 
1689.748 
1689.817 
1689.885 
1689.954 
1690.022 
1690.090 
1690.159 
1690.227 
1690.296 
1690.364 
1690.432 
1690.501 
1690.569 
1690.637 
1690.706 
1690.774 
1690.843 
1690.911 
1690.979 
1691.048 
1691.116 
1691.184 
1691.253 
1691.321 
1691.390 
1691.458 
1691.526 
1691.595 
1691.663 
1691.732 
1691.800 
1691.868 
1691.937 
1692.005 
1692.073 
1692.142 
1692.210 
1692.278 
1692.347 
1692.415 
1692.484 
1692.552 
1692.620 
1692.689 
1692.757 
1692.825 
1692.894 
1692.962 
1693.031 
1693.099 
1693.167 
1693.236 
1693.304 
1693.372 
1693.441 
1693.509 
1693.577 
1693.646 
1693.714 
1693.783 
1693.851 
1693.919 
1693.988 
1694.056 
1694.124 
1694.193 
1694.261 
1694.329 
1694.398 
1694.466 
1694.534 
1694.603 
1694.671 
1694.739 
1694.808 
1694.876 
1694.945 
1695.013 
1695.081 
1695.150 
1695.218 
1695.286 
1695.355 
1695.423 
1695.491 
1695.560 
1695.628 
1695.696 
1695.765 
1695.833 
1695.901 
1695.970 
1696.038 
1696.106 
1696.175 
1696.243 
1696.311 
1696.380 
1696.448 
1696.516 
1696.585 
1696.653 
1696.721 
1696.790 
1696.858 
1696.926 
1696.995 
1697.063 
1697.131 
1697.200 
1697.268 
1697.336 
1697.405 
1697.473 
1697.541 
1697.610 
1697.678 
1697.746 
1697.815 
1697.883 
1697.951 
1698.020 
1698.088 
1698.156 
1698.225 
1698.293 
1698.361 
1698.430 
1698.498 
1698.566 
1698.635 
1698.703 
1698.771 
1698.840 
1698.908 
1698.976 
1699.045 
1699.113 
1699.181 
1699.250 
1699.318 
1699.386 
1699.455 
1699.523 
1699.591 
1699.659 
1699.728 
1699.796 
1699.864 
1699.933 
1700.001 
1700.069 
1700.138 
1700.206 
1700.274 
1700.343 
1700.411 
1700.479 
1700.547 
1700.616 
1700.684 
1700.752 
1700.821 
1700.889 
1700.957 
1701.026 
1701.094 
1701.162 
1701.231 
1701.299 
1701.367 
1701.435 
1701.504 
1701.572 
1701.640 
1701.709 
1701.777 
1701.845 
1701.914 
1701.982 
1702.050 
1702.118 
1702.187 
1702.255 
1702.323 
1702.392 
1702.460 
1702.528 
1702.596 
1702.665 
1702.733 
1702.801 
1702.870 
1702.938 
1703.006 
1703.075 
1703.143 
1703.211 
1703.279 
1703.348 
1703.416 
1703.484 
1703.553 
1703.621 
1703.689 
1703.757 
1703.826 
1703.894 
1703.962 
1704.031 
1704.099 
1704.167 
1704.235 
1704.304 
1704.372 
1704.440 
1704.508 
1704.577 
1704.645 
1704.713 
1704.782 
1704.850 
1704.918 
1704.986 
1705.055 
1705.123 
1705.191 
1705.259 
1705.328 
1705.396 
1705.464 
1705.533 
1705.601 
1705.669 
1705.737 
1705.806 
1705.874 
1705.942 
1706.010 
1706.079 
1706.147 
1706.215 
1706.284 
1706.352 
1706.420 
1706.488 
1706.557 
1706.625 
1706.693 
1706.761 
1706.830 
1706.898 
1706.966 
1707.034 
1707.103 
1707.171 
1707.239 
1707.307 
1707.376 
1707.444 
1707.512 
1707.580 
1707.649 
1707.717 
1707.785 
1707.853 
1707.922 
1707.990 
1708.058 
1708.126 
1708.195 
1708.263 
1708.331 
1708.399 
1708.468 
1708.536 
1708.604 
1708.672 
1708.741 
1708.809 
1708.877 
1708.945 
1709.014 
1709.082 
1709.150 
1709.218 
1709.287 
1709.355 
1709.423 
1709.491 
1709.560 
1709.628 
1709.696 
1709.764 
1709.833 
1709.901 
1709.969 
1710.037 
1710.105 
1710.174 
1710.242 
1710.310 
1710.378 
1710.447 
1710.515 
1710.583 
1710.651 
1710.720 
1710.788 
1710.856 
1710.924 
1710.993 
1711.061 
1711.129 
1711.197 
1711.265 
1711.334 
1711.402 
1711.470 
1711.538 
1711.607 
1711.675 
1711.743 
1711.811 
1711.879 
1711.948 
1712.016 
1712.084 
1712.152 
1712.221 
1712.289 
1712.357 
1712.425 
1712.493 
1712.562 
1712.630 
1712.698 
1712.766 
1712.834 
1712.903 
1712.971 
1713.039 
1713.107 
1713.176 
1713.244 
1713.312 
1713.380 
1713.448 
1713.517 
1713.585 
1713.653 
1713.721 
1713.789 
1713.858 
1713.926 
1713.994 
1714.062 
1714.130 
1714.199 
1714.267 
1714.335 
1714.403 
1714.471 
1714.540 
1714.608 
1714.676 
1714.744 
1714.812 
1714.881 
1714.949 
1715.017 
1715.085 
1715.153 
1715.222 
1715.290 
1715.358 
1715.426 
1715.494 
1715.563 
1715.631 
1715.699 
1715.767 
1715.835 
1715.904 
1715.972 
1716.040 
1716.108 
1716.176 
1716.245 
1716.313 
1716.381 
1716.449 
1716.517 
1716.586 
1716.654 
1716.722 
1716.790 
1716.858 
1716.926 
1716.995 
1717.063 
1717.131 
1717.199 
1717.267 
1717.336 
1717.404 
1717.472 
1717.540 
1717.608 
1717.676 
1717.745 
1717.813 
1717.881 
1717.949 
1718.017 
1718.085 
1718.154 
1718.222 
1718.290 
1718.358 
1718.426 
1718.495 
1718.563 
1718.631 
1718.699 
1718.767 
1718.835 
1718.904 
1718.972 
1719.040 
1719.108 
1719.176 
1719.244 
1719.313 
1719.381 
1719.449 
1719.517 
1719.585 
1719.653 
1719.722 
1719.790 
1719.858 
1719.926 
1719.994 
1720.062 
1720.130 
1720.199 
1720.267 
1720.335 
1720.403 
1720.471 
1720.539 
1720.608 
1720.676 
1720.744 
1720.812 
1720.880 
1720.948 
1721.017 
1721.085 
1721.153 
1721.221 
1721.289 
1721.357 
1721.425 
1721.494 
1721.562 
1721.630 
1721.698 
1721.766 
1721.834 
1721.902 
1721.971 
1722.039 
1722.107 
1722.175 
1722.243 
1722.311 
1722.379 
1722.448 
1722.516 
1722.584 
1722.652 
1722.720 
1722.788 
1722.856 
1722.925 
1722.993 
1723.061 
1723.129 
1723.197 
1723.265 
1723.333 
1723.402 
1723.470 
1723.538 
1723.606 
1723.674 
1723.742 
1723.810 
1723.878 
1723.947 
1724.015 
1724.083 
1724.151 
1724.219 
1724.287 
1724.355 
1724.423 
1724.492 
1724.560 
1724.628 
1724.696 
1724.764 
1724.832 
1724.900 
1724.968 
1725.037 
1725.105 
1725.173 
1725.241 
1725.309 
1725.377 
1725.445 
1725.513 
1725.582 
1725.650 
1725.718 
1725.786 
1725.854 
1725.922 
1725.990 
1726.058 
1726.126 
1726.195 
1726.263 
1726.331 
1726.399 
1726.467 
1726.535 
1726.603 
1726.671 
1726.739 
1726.808 
1726.876 
1726.944 
1727.012 
1727.080 
1727.148 
1727.216 
1727.284 
1727.352 
1727.421 
1727.489 
1727.557 
1727.625 
1727.693 
1727.761 
1727.829 
1727.897 
1727.965 
1728.033 
1728.102 
1728.170 
1728.238 
1728.306 
1728.374 
1728.442 
1728.510 
1728.578 
1728.646 
1728.714 
1728.783 
1728.851 
1728.919 
1728.987 
1729.055 
1729.123 
1729.191 
1729.259 
1729.327 
1729.395 
1729.463 
1729.532 
1729.600 
1729.668 
1729.736 
1729.804 
1729.872 
1729.940 
1730.008 
1730.076 
1730.144 
1730.212 
1730.280 
1730.349 
1730.417 
1730.485 
1730.553 
1730.621 
1730.689 
1730.757 
1730.825 
1730.893 
1730.961 
1731.029 
1731.097 
1731.165 
1731.234 
1731.302 
1731.370 
1731.438 
1731.506 
1731.574 
1731.642 
1731.710 
1731.778 
1731.846 
1731.914 
1731.982 
1732.050 
1732.118 
1732.187 
1732.255 
1732.323 
1732.391 
1732.459 
1732.527 
1732.595 
1732.663 
1732.731 
1732.799 
1732.867 
1732.935 
1733.003 
1733.071 
1733.139 
1733.207 
1733.276 
1733.344 
1733.412 
1733.480 
1733.548 
1733.616 
1733.684 
1733.752 
1733.820 
1733.888 
1733.956 
1734.024 
1734.092 
1734.160 
1734.228 
1734.296 
1734.364 
1734.432 
1734.501 
1734.569 
1734.637 
1734.705 
1734.773 
1734.841 
1734.909 
1734.977 
1735.045 
1735.113 
1735.181 
1735.249 
1735.317 
1735.385 
1735.453 
1735.521 
1735.589 
1735.657 
1735.725 
1735.793 
1735.861 
1735.929 
1735.998 
1736.066 
1736.134 
1736.202 
1736.270 
1736.338 
1736.406 
1736.474 
1736.542 
1736.610 
1736.678 
1736.746 
1736.814 
1736.882 
1736.950 
1737.018 
1737.086 
1737.154 
1737.222 
1737.290 
1737.358 
1737.426 
1737.494 
1737.562 
1737.630 
1737.698 
1737.766 
1737.834 
1737.902 
1737.970 
1738.038 
1738.106 
1738.174 
1738.242 
1738.311 
1738.379 
1738.447 
1738.515 
1738.583 
1738.651 
1738.719 
1738.787 
1738.855 
1738.923 
1738.991 
1739.059 
1739.127 
1739.195 
1739.263 
1739.331 
1739.399 
1739.467 
1739.535 
1739.603 
1739.671 
1739.739 
1739.807 
1739.875 
1739.943 
1740.011 
1740.079 
1740.147 
1740.215 
1740.283 
1740.351 
1740.419 
1740.487 
1740.555 
1740.623 
1740.691 
1740.759 
1740.827 
1740.895 
1740.963 
1741.031 
1741.099 
1741.167 
1741.235 
1741.303 
1741.371 
1741.439 
1741.507 
1741.575 
1741.643 
1741.711 
1741.779 
1741.847 
1741.915 
1741.983 
1742.051 
1742.119 
1742.187 
1742.255 
1742.323 
1742.391 
1742.459 
1742.527 
1742.595 
1742.663 
1742.731 
1742.799 
1742.867 
1742.935 
1743.003 
1743.071 
1743.139 
1743.207 
1743.275 
1743.343 
1743.411 
1743.479 
1743.547 
1743.615 
1743.683 
1743.751 
1743.819 
1743.886 
1743.954 
1744.022 
1744.090 
1744.158 
1744.226 
1744.294 
1744.362 
1744.430 
1744.498 
1744.566 
1744.634 
1744.702 
1744.770 
1744.838 
1744.906 
1744.974 
1745.042 
1745.110 
1745.178 
1745.246 
1745.314 
1745.382 
1745.450 
1745.518 
1745.586 
1745.654 
1745.722 
1745.790 
1745.858 
1745.926 
1745.994 
1746.062 
1746.129 
1746.197 
1746.265 
1746.333 
1746.401 
1746.469 
1746.537 
1746.605 
1746.673 
1746.741 
1746.809 
1746.877 
1746.945 
1747.013 
1747.081 
1747.149 
1747.217 
1747.285 
1747.353 
1747.421 
1747.489 
1747.557 
1747.625 
1747.692 
1747.760 
1747.828 
1747.896 
1747.964 
1748.032 
1748.100 
1748.168 
1748.236 
1748.304 
1748.372 
1748.440 
1748.508 
1748.576 
1748.644 
1748.712 
1748.780 
1748.848 
1748.915 
1748.983 
1749.051 
1749.119 
1749.187 
1749.255 
1749.323 
1749.391 
1749.459 
1749.527 
1749.595 
1749.663 
1749.731 
1749.799 
1749.867 
1749.935 
1750.002 
1750.070 
1750.138 
1750.206 
1750.274 
1750.342 
1750.410 
1750.478 
1750.546 
1750.614 
1750.682 
1750.750 
1750.818 
1750.886 
1750.953 
1751.021 
1751.089 
1751.157 
1751.225 
1751.293 
1751.361 
1751.429 
1751.497 
1751.565 
1751.633 
1751.701 
1751.769 
1751.836 
1751.904 
1751.972 
1752.040 
1752.108 
1752.176 
1752.244 
1752.312 
1752.380 
1752.448 
1752.516 
1752.584 
1752.651 
1752.719 
1752.787 
1752.855 
1752.923 
1752.991 
1753.059 
1753.127 
1753.195 
1753.263 
1753.331 
1753.398 
1753.466 
1753.534 
1753.602 
1753.670 
1753.738 
1753.806 
1753.874 
1753.942 
1754.010 
1754.077 
1754.145 
1754.213 
1754.281 
1754.349 
1754.417 
1754.485 
1754.553 
1754.621 
1754.689 
1754.756 
1754.824 
1754.892 
1754.960 
1755.028 
1755.096 
1755.164 
1755.232 
1755.300 
1755.367 
1755.435 
1755.503 
1755.571 
1755.639 
1755.707 
1755.775 
1755.843 
1755.911 
1755.978 
1756.046 
1756.114 
1756.182 
1756.250 
1756.318 
1756.386 
1756.454 
1756.522 
1756.589 
1756.657 
1756.725 
1756.793 
1756.861 
1756.929 
1756.997 
1757.065 
1757.132 
1757.200 
1757.268 
1757.336 
1757.404 
1757.472 
1757.540 
1757.608 
1757.675 
1757.743 
1757.811 
1757.879 
1757.947 
1758.015 
1758.083 
1758.151 
1758.218 
1758.286 
1758.354 
1758.422 
1758.490 
1758.558 
1758.626 
1758.694 
1758.761 
1758.829 
1758.897 
1758.965 
1759.033 
1759.101 
1759.169 
1759.236 
1759.304 
1759.372 
1759.440 
1759.508 
1759.576 
1759.644 
1759.711 
1759.779 
1759.847 
1759.915 
1759.983 
1760.051 
1760.119 
1760.186 
1760.254 
1760.322 
1760.390 
1760.458 
1760.526 
1760.594 
1760.661 
1760.729 
1760.797 
1760.865 
1760.933 
1761.001 
1761.068 
1761.136 
1761.204 
1761.272 
1761.340 
1761.408 
1761.476 
1761.543 
1761.611 
1761.679 
1761.747 
1761.815 
1761.883 
1761.950 
1762.018 
1762.086 
1762.154 
1762.222 
1762.290 
1762.358 
1762.425 
1762.493 
1762.561 
1762.629 
1762.697 
1762.765 
1762.832 
1762.900 
1762.968 
1763.036 
1763.104 
1763.172 
1763.239 
1763.307 
1763.375 
1763.443 
1763.511 
1763.578 
1763.646 
1763.714 
1763.782 
1763.850 
1763.918 
1763.985 
1764.053 
1764.121 
1764.189 
1764.257 
1764.325 
1764.392 
1764.460 
1764.528 
1764.596 
1764.664 
1764.732 
1764.799 
1764.867 
1764.935 
1765.003 
1765.071 
1765.138 
1765.206 
1765.274 
1765.342 
1765.410 
1765.477 
1765.545 
1765.613 
1765.681 
1765.749 
1765.817 
1765.884 
1765.952 
1766.020 
1766.088 
1766.156 
1766.223 
1766.291 
1766.359 
1766.427 
1766.495 
1766.562 
1766.630 
1766.698 
1766.766 
1766.834 
1766.901 
1766.969 
1767.037 
1767.105 
1767.173 
1767.240 
1767.308 
1767.376 
1767.444 
1767.512 
1767.579 
1767.647 
1767.715 
1767.783 
1767.851 
1767.918 
1767.986 
1768.054 
1768.122 
1768.190 
1768.257 
1768.325 
1768.393 
1768.461 
1768.529 
1768.596 
1768.664 
1768.732 
1768.800 
1768.868 
1768.935 
1769.003 
1769.071 
1769.139 
1769.206 
1769.274 
1769.342 
1769.410 
1769.478 
1769.545 
1769.613 
1769.681 
1769.749 
1769.817 
1769.884 
1769.952 
1770.020 
1770.088 
1770.155 
1770.223 
1770.291 
1770.359 
1770.427 
1770.494 
1770.562 
1770.630 
1770.698 
1770.765 
1770.833 
1770.901 
1770.969 
1771.036 
1771.104 
1771.172 
1771.240 
1771.308 
1771.375 
1771.443 
1771.511 
1771.579 
1771.646 
1771.714 
1771.782 
1771.850 
1771.917 
1771.985 
1772.053 
1772.121 
1772.189 
1772.256 
1772.324 
1772.392 
1772.460 
1772.527 
1772.595 
1772.663 
1772.731 
1772.798 
1772.866 
1772.934 
1773.002 
1773.069 
1773.137 
1773.205 
1773.273 
1773.340 
1773.408 
1773.476 
1773.544 
1773.611 
1773.679 
1773.747 
1773.815 
1773.882 
1773.950 
1774.018 
1774.086 
1774.153 
1774.221 
1774.289 
1774.357 
1774.424 
1774.492 
1774.560 
1774.628 
1774.695 
1774.763 
1774.831 
1774.899 
1774.966 
1775.034 
1775.102 
1775.170 
1775.237 
1775.305 
1775.373 
1775.441 
1775.508 
1775.576 
1775.644 
1775.711 
1775.779 
1775.847 
1775.915 
1775.982 
1776.050 
1776.118 
1776.186 
1776.253 
1776.321 
1776.389 
1776.457 
1776.524 
1776.592 
1776.660 
1776.727 
1776.795 
1776.863 
1776.931 
1776.998 
1777.066 
1777.134 
1777.202 
1777.269 
1777.337 
1777.405 
1777.472 
1777.540 
1777.608 
1777.676 
1777.743 
1777.811 
1777.879 
1777.946 
1778.014 
1778.082 
1778.150 
1778.217 
1778.285 
1778.353 
1778.421 
1778.488 
1778.556 
1778.624 
1778.691 
1778.759 
1778.827 
1778.895 
1778.962 
1779.030 
1779.098 
1779.165 
1779.233 
1779.301 
1779.368 
1779.436 
1779.504 
1779.572 
1779.639 
1779.707 
1779.775 
1779.842 
1779.910 
1779.978 
1780.046 
1780.113 
1780.181 
1780.249 
1780.316 
1780.384 
1780.452 
1780.519 
1780.587 
1780.655 
1780.723 
1780.790 
1780.858 
1780.926 
1780.993 
1781.061 
1781.129 
1781.196 
1781.264 
1781.332 
1781.399 
1781.467 
1781.535 
1781.603 
1781.670 
1781.738 
1781.806 
1781.873 
1781.941 
1782.009 
1782.076 
1782.144 
1782.212 
1782.279 
1782.347 
1782.415 
1782.482 
1782.550 
1782.618 
1782.686 
1782.753 
1782.821 
1782.889 
1782.956 
1783.024 
1783.092 
1783.159 
1783.227 
1783.295 
1783.362 
1783.430 
1783.498 
1783.565 
1783.633 
1783.701 
1783.768 
1783.836 
1783.904 
1783.971 
1784.039 
1784.107 
1784.174 
1784.242 
1784.310 
1784.377 
1784.445 
1784.513 
1784.580 
1784.648 
1784.716 
1784.783 
1784.851 
1784.919 
1784.986 
1785.054 
1785.122 
1785.189 
1785.257 
1785.325 
1785.392 
1785.460 
1785.528 
1785.595 
1785.663 
1785.731 
1785.798 
1785.866 
1785.934 
1786.001 
1786.069 
1786.137 
1786.204 
1786.272 
1786.340 
1786.407 
1786.475 
1786.543 
1786.610 
1786.678 
1786.746 
1786.813 
1786.881 
1786.949 
1787.016 
1787.084 
1787.151 
1787.219 
1787.287 
1787.354 
1787.422 
1787.490 
1787.557 
1787.625 
1787.693 
1787.760 
1787.828 
1787.896 
1787.963 
1788.031 
1788.098 
1788.166 
1788.234 
1788.301 
1788.369 
1788.437 
1788.504 
1788.572 
1788.640 
1788.707 
1788.775 
1788.843 
1788.910 
1788.978 
1789.045 
1789.113 
1789.181 
1789.248 
1789.316 
1789.384 
1789.451 
1789.519 
1789.586 
1789.654 
1789.722 
1789.789 
1789.857 
1789.925 
1789.992 
1790.060 
1790.127 
1790.195 
1790.263 
1790.330 
1790.398 
1790.466 
1790.533 
1790.601 
1790.668 
1790.736 
1790.804 
1790.871 
1790.939 
1791.007 
1791.074 
1791.142 
1791.209 
1791.277 
1791.345 
1791.412 
1791.480 
1791.548 
1791.615 
1791.683 
1791.750 
1791.818 
1791.886 
1791.953 
1792.021 
1792.088 
1792.156 
1792.224 
1792.291 
1792.359 
1792.426 
1792.494 
1792.562 
1792.629 
1792.697 
1792.764 
1792.832 
1792.900 
1792.967 
1793.035 
1793.103 
1793.170 
1793.238 
1793.305 
1793.373 
1793.441 
1793.508 
1793.576 
1793.643 
1793.711 
1793.779 
1793.846 
1793.914 
1793.981 
1794.049 
1794.116 
1794.184 
1794.252 
1794.319 
1794.387 
1794.454 
1794.522 
1794.590 
1794.657 
1794.725 
1794.792 
1794.860 
1794.928 
1794.995 
1795.063 
1795.130 
1795.198 
1795.266 
1795.333 
1795.401 
1795.468 
1795.536 
1795.603 
1795.671 
1795.739 
1795.806 
1795.874 
1795.941 
1796.009 
1796.077 
1796.144 
1796.212 
1796.279 
1796.347 
1796.414 
1796.482 
1796.550 
1796.617 
1796.685 
1796.752 
1796.820 
1796.887 
1796.955 
1797.023 
1797.090 
1797.158 
1797.225 
1797.293 
1797.360 
1797.428 
1797.496 
1797.563 
1797.631 
1797.698 
1797.766 
1797.833 
1797.901 
1797.969 
1798.036 
1798.104 
1798.171 
1798.239 
1798.306 
1798.374 
1798.442 
1798.509 
1798.577 
1798.644 
1798.712 
1798.779 
1798.847 
1798.914 
1798.982 
1799.050 
1799.117 
1799.185 
1799.252 
1799.320 
1799.387 
1799.455 
1799.522 
1799.590 
1799.658 
1799.725 
1799.793 
1799.860 
1799.928 
1799.995 
1800.063 
1800.130 
1800.198 
1800.265 
1800.333 
1800.401 
1800.468 
1800.536 
1800.603 
1800.671 
1800.738 
1800.806 
1800.873 
1800.941 
1801.008 
1801.076 
1801.144 
1801.211 
1801.279 
1801.346 
1801.414 
1801.481 
1801.549 
1801.616 
1801.684 
1801.751 
1801.819 
1801.886 
1801.954 
1802.022 
1802.089 
1802.157 
1802.224 
1802.292 
1802.359 
1802.427 
1802.494 
1802.562 
1802.629 
1802.697 
1802.764 
1802.832 
1802.899 
1802.967 
1803.035 
1803.102 
1803.170 
1803.237 
1803.305 
1803.372 
1803.440 
1803.507 
1803.575 
1803.642 
1803.710 
1803.777 
1803.845 
1803.912 
1803.980 
1804.047 
1804.115 
1804.182 
1804.250 
1804.317 
1804.385 
1804.452 
1804.520 
1804.588 
1804.655 
1804.723 
1804.790 
1804.858 
1804.925 
1804.993 
1805.060 
1805.128 
1805.195 
1805.263 
1805.330 
1805.398 
1805.465 
1805.533 
1805.600 
1805.668 
1805.735 
1805.803 
1805.870 
1805.938 
1806.005 
1806.073 
1806.140 
1806.208 
1806.275 
1806.343 
1806.410 
1806.478 
1806.545 
1806.613 
1806.680 
1806.748 
1806.815 
1806.883 
1806.950 
1807.018 
1807.085 
1807.153 
1807.220 
1807.288 
1807.355 
1807.423 
1807.490 
1807.558 
1807.625 
1807.693 
1807.760 
1807.828 
1807.895 
1807.963 
1808.030 
1808.098 
1808.165 
1808.233 
1808.300 
1808.368 
1808.435 
1808.502 
1808.570 
1808.637 
1808.705 
1808.772 
1808.840 
1808.907 
1808.975 
1809.042 
1809.110 
1809.177 
1809.245 
1809.312 
1809.380 
1809.447 
1809.515 
1809.582 
1809.650 
1809.717 
1809.785 
1809.852 
1809.920 
1809.987 
1810.055 
1810.122 
1810.189 
1810.257 
1810.324 
1810.392 
1810.459 
1810.527 
1810.594 
1810.662 
1810.729 
1810.797 
1810.864 
1810.932 
1810.999 
1811.067 
1811.134 
1811.201 
1811.269 
1811.336 
1811.404 
1811.471 
1811.539 
1811.606 
1811.674 
1811.741 
1811.809 
1811.876 
1811.944 
1812.011 
1812.078 
1812.146 
1812.213 
1812.281 
1812.348 
1812.416 
1812.483 
1812.551 
1812.618 
1812.686 
1812.753 
1812.820 
1812.888 
1812.955 
1813.023 
1813.090 
1813.158 
1813.225 
1813.293 
1813.360 
1813.428 
1813.495 
1813.562 
1813.630 
1813.697 
1813.765 
1813.832 
1813.900 
1813.967 
1814.035 
1814.102 
1814.169 
1814.237 
1814.304 
1814.372 
1814.439 
1814.507 
1814.574 
1814.641 
1814.709 
1814.776 
1814.844 
1814.911 
1814.979 
1815.046 
1815.114 
1815.181 
1815.248 
1815.316 
1815.383 
1815.451 
1815.518 
1815.586 
1815.653 
1815.720 
1815.788 
1815.855 
1815.923 
1815.990 
1816.058 
1816.125 
1816.192 
1816.260 
1816.327 
1816.395 
1816.462 
1816.530 
1816.597 
1816.664 
1816.732 
1816.799 
1816.867 
1816.934 
1817.001 
1817.069 
1817.136 
1817.204 
1817.271 
1817.339 
1817.406 
1817.473 
1817.541 
1817.608 
1817.676 
1817.743 
1817.810 
1817.878 
1817.945 
1818.013 
1818.080 
1818.148 
1818.215 
1818.282 
1818.350 
1818.417 
1818.485 
1818.552 
1818.619 
1818.687 
1818.754 
1818.822 
1818.889 
1818.956 
1819.024 
1819.091 
1819.159 
1819.226 
1819.293 
1819.361 
1819.428 
1819.496 
1819.563 
1819.630 
1819.698 
1819.765 
1819.833 
1819.900 
1819.967 
1820.035 
1820.102 
1820.170 
1820.237 
1820.304 
1820.372 
1820.439 
1820.507 
1820.574 
1820.641 
1820.709 
1820.776 
1820.844 
1820.911 
1820.978 
1821.046 
1821.113 
1821.180 
1821.248 
1821.315 
1821.383 
1821.450 
1821.517 
1821.585 
1821.652 
1821.720 
1821.787 
1821.854 
1821.922 
1821.989 
1822.056 
1822.124 
1822.191 
1822.259 
1822.326 
1822.393 
1822.461 
1822.528 
1822.596 
1822.663 
1822.730 
1822.798 
1822.865 
1822.932 
1823.000 
1823.067 
1823.135 
1823.202 
1823.269 
1823.337 
1823.404 
1823.471 
1823.539 
1823.606 
1823.673 
1823.741 
1823.808 
1823.876 
1823.943 
1824.010 
1824.078 
1824.145 
1824.212 
1824.280 
1824.347 
1824.414 
1824.482 
1824.549 
1824.617 
1824.684 
1824.751 
1824.819 
1824.886 
1824.953 
1825.021 
1825.088 
1825.155 
1825.223 
1825.290 
1825.358 
1825.425 
1825.492 
1825.560 
1825.627 
1825.694 
1825.762 
1825.829 
1825.896 
1825.964 
1826.031 
1826.098 
1826.166 
1826.233 
1826.300 
1826.368 
1826.435 
1826.502 
1826.570 
1826.637 
1826.705 
1826.772 
1826.839 
1826.907 
1826.974 
1827.041 
1827.109 
1827.176 
1827.243 
1827.311 
1827.378 
1827.445 
1827.513 
1827.580 
1827.647 
1827.715 
1827.782 
1827.849 
1827.917 
1827.984 
1828.051 
1828.119 
1828.186 
1828.253 
1828.321 
1828.388 
1828.455 
1828.523 
1828.590 
1828.657 
1828.725 
1828.792 
1828.859 
1828.927 
1828.994 
1829.061 
1829.129 
1829.196 
1829.263 
1829.331 
1829.398 
1829.465 
1829.533 
1829.600 
1829.667 
1829.735 
1829.802 
1829.869 
1829.936 
1830.004 
1830.071 
1830.138 
1830.206 
1830.273 
1830.340 
1830.408 
1830.475 
1830.542 
1830.610 
1830.677 
1830.744 
1830.812 
1830.879 
1830.946 
1831.014 
1831.081 
1831.148 
1831.215 
1831.283 
1831.350 
1831.417 
1831.485 
1831.552 
1831.619 
1831.687 
1831.754 
1831.821 
1831.889 
1831.956 
1832.023 
1832.090 
1832.158 
1832.225 
1832.292 
1832.360 
1832.427 
1832.494 
1832.562 
1832.629 
1832.696 
1832.763 
1832.831 
1832.898 
1832.965 
1833.033 
1833.100 
1833.167 
1833.235 
1833.302 
1833.369 
1833.436 
1833.504 
1833.571 
1833.638 
1833.706 
1833.773 
1833.840 
1833.907 
1833.975 
1834.042 
1834.109 
1834.177 
1834.244 
1834.311 
1834.379 
1834.446 
1834.513 
1834.580 
1834.648 
1834.715 
1834.782 
1834.849 
1834.917 
1834.984 
1835.051 
1835.119 
1835.186 
1835.253 
1835.320 
1835.388 
1835.455 
1835.522 
1835.590 
1835.657 
1835.724 
1835.791 
1835.859 
1835.926 
1835.993 
1836.060 
1836.128 
1836.195 
1836.262 
1836.330 
1836.397 
1836.464 
1836.531 
1836.599 
1836.666 
1836.733 
1836.800 
1836.868 
1836.935 
1837.002 
1837.070 
1837.137 
1837.204 
1837.271 
1837.339 
1837.406 
1837.473 
1837.540 
1837.608 
1837.675 
1837.742 
1837.809 
1837.877 
1837.944 
1838.011 
1838.078 
1838.146 
1838.213 
1838.280 
1838.347 
1838.415 
1838.482 
1838.549 
1838.617 
1838.684 
1838.751 
1838.818 
1838.886 
1838.953 
1839.020 
1839.087 
1839.155 
1839.222 
1839.289 
1839.356 
1839.424 
1839.491 
1839.558 
1839.625 
1839.692 
1839.760 
1839.827 
1839.894 
1839.961 
1840.029 
1840.096 
1840.163 
1840.230 
1840.298 
1840.365 
1840.432 
1840.499 
1840.567 
1840.634 
1840.701 
1840.768 
1840.836 
1840.903 
1840.970 
1841.037 
1841.105 
1841.172 
1841.239 
1841.306 
1841.373 
1841.441 
1841.508 
1841.575 
1841.642 
1841.710 
1841.777 
1841.844 
1841.911 
1841.979 
1842.046 
1842.113 
1842.180 
1842.247 
1842.315 
1842.382 
1842.449 
1842.516 
1842.584 
1842.651 
1842.718 
1842.785 
1842.852 
1842.920 
1842.987 
1843.054 
1843.121 
1843.189 
1843.256 
1843.323 
1843.390 
1843.457 
1843.525 
1843.592 
1843.659 
1843.726 
1843.793 
1843.861 
1843.928 
1843.995 
1844.062 
1844.130 
1844.197 
1844.264 
1844.331 
1844.398 
1844.466 
1844.533 
1844.600 
1844.667 
1844.734 
1844.802 
1844.869 
1844.936 
1845.003 
1845.070 
1845.138 
1845.205 
1845.272 
1845.339 
1845.406 
1845.474 
1845.541 
1845.608 
1845.675 
1845.742 
1845.810 
1845.877 
1845.944 
1846.011 
1846.078 
1846.146 
1846.213 
1846.280 
1846.347 
1846.414 
1846.482 
1846.549 
1846.616 
1846.683 
1846.750 
1846.818 
1846.885 
1846.952 
1847.019 
1847.086 
1847.154 
1847.221 
1847.288 
1847.355 
1847.422 
1847.489 
1847.557 
1847.624 
1847.691 
1847.758 
1847.825 
1847.893 
1847.960 
1848.027 
1848.094 
1848.161 
1848.228 
1848.296 
1848.363 
1848.430 
1848.497 
1848.564 
1848.632 
1848.699 
1848.766 
1848.833 
1848.900 
1848.967 
1849.035 
1849.102 
1849.169 
1849.236 
1849.303 
1849.370 
1849.438 
1849.505 
1849.572 
1849.639 
1849.706 
1849.773 
1849.841 
1849.908 
1849.975 
1850.042 
1850.109 
1850.176 
1850.244 
1850.311 
1850.378 
1850.445 
1850.512 
1850.579 
1850.647 
1850.714 
1850.781 
1850.848 
1850.915 
1850.982 
1851.050 
1851.117 
1851.184 
1851.251 
1851.318 
1851.385 
1851.452 
1851.520 
1851.587 
1851.654 
1851.721 
1851.788 
1851.855 
1851.923 
1851.990 
1852.057 
1852.124 
1852.191 
1852.258 
1852.325 
1852.393 
1852.460 
1852.527 
1852.594 
1852.661 
1852.728 
1852.795 
1852.863 
1852.930 
1852.997 
1853.064 
1853.131 
1853.198 
1853.265 
1853.333 
1853.400 
1853.467 
1853.534 
1853.601 
1853.668 
1853.735 
1853.803 
1853.870 
1853.937 
1854.004 
1854.071 
1854.138 
1854.205 
1854.273 
1854.340 
1854.407 
1854.474 
1854.541 
1854.608 
1854.675 
1854.742 
1854.810 
1854.877 
1854.944 
1855.011 
1855.078 
1855.145 
1855.212 
1855.279 
1855.347 
1855.414 
1855.481 
1855.548 
1855.615 
1855.682 
1855.749 
1855.816 
1855.884 
1855.951 
1856.018 
1856.085 
1856.152 
1856.219 
1856.286 
1856.353 
1856.421 
1856.488 
1856.555 
1856.622 
1856.689 
1856.756 
1856.823 
1856.890 
1856.957 
1857.025 
1857.092 
1857.159 
1857.226 
1857.293 
1857.360 
1857.427 
1857.494 
1857.561 
1857.629 
1857.696 
1857.763 
1857.830 
1857.897 
1857.964 
1858.031 
1858.098 
1858.165 
1858.232 
1858.300 
1858.367 
1858.434 
1858.501 
1858.568 
1858.635 
1858.702 
1858.769 
1858.836 
1858.903 
1858.971 
1859.038 
1859.105 
1859.172 
1859.239 
1859.306 
1859.373 
1859.440 
1859.507 
1859.574 
1859.641 
1859.709 
1859.776 
1859.843 
1859.910 
1859.977 
1860.044 
1860.111 
1860.178 
1860.245 
1860.312 
1860.379 
1860.447 
1860.514 
1860.581 
1860.648 
1860.715 
1860.782 
1860.849 
1860.916 
1860.983 
1861.050 
1861.117 
1861.184 
1861.252 
1861.319 
1861.386 
1861.453 
1861.520 
1861.587 
1861.654 
1861.721 
1861.788 
1861.855 
1861.922 
1861.989 
1862.056 
1862.124 
1862.191 
1862.258 
1862.325 
1862.392 
1862.459 
1862.526 
1862.593 
1862.660 
1862.727 
1862.794 
1862.861 
1862.928 
1862.995 
1863.062 
1863.130 
1863.197 
1863.264 
1863.331 
1863.398 
1863.465 
1863.532 
1863.599 
1863.666 
1863.733 
1863.800 
1863.867 
1863.934 
1864.001 
1864.068 
1864.135 
1864.203 
1864.270 
1864.337 
1864.404 
1864.471 
1864.538 
1864.605 
1864.672 
1864.739 
1864.806 
1864.873 
1864.940 
1865.007 
1865.074 
1865.141 
1865.208 
1865.275 
1865.342 
1865.409 
1865.477 
1865.544 
1865.611 
1865.678 
1865.745 
1865.812 
1865.879 
1865.946 
1866.013 
1866.080 
1866.147 
1866.214 
1866.281 
1866.348 
1866.415 
1866.482 
1866.549 
1866.616 
1866.683 
1866.750 
1866.817 
1866.884 
1866.951 
1867.018 
1867.085 
1867.153 
1867.220 
1867.287 
1867.354 
1867.421 
1867.488 
1867.555 
1867.622 
1867.689 
1867.756 
1867.823 
1867.890 
1867.957 
1868.024 
1868.091 
1868.158 
1868.225 
1868.292 
1868.359 
1868.426 
1868.493 
1868.560 
1868.627 
1868.694 
1868.761 
1868.828 
1868.895 
1868.962 
1869.029 
1869.096 
1869.163 
1869.230 
1869.297 
1869.364 
1869.431 
1869.498 
1869.565 
1869.632 
1869.699 
1869.766 
1869.833 
1869.900 
1869.967 
1870.034 
1870.101 
1870.168 
1870.235 
1870.303 
1870.370 
1870.437 
1870.504 
1870.571 
1870.638 
1870.705 
1870.772 
1870.839 
1870.906 
1870.973 
1871.040 
1871.107 
1871.174 
1871.241 
1871.308 
1871.375 
1871.442 
1871.509 
1871.576 
1871.643 
1871.710 
1871.777 
1871.844 
1871.911 
1871.978 
1872.045 
1872.112 
1872.179 
1872.246 
1872.313 
1872.380 
1872.447 
1872.514 
1872.581 
1872.648 
1872.715 
1872.781 
1872.848 
1872.915 
1872.982 
1873.049 
1873.116 
1873.183 
1873.250 
1873.317 
1873.384 
1873.451 
1873.518 
1873.585 
1873.652 
1873.719 
1873.786 
1873.853 
1873.920 
1873.987 
1874.054 
1874.121 
1874.188 
1874.255 
1874.322 
1874.389 
1874.456 
1874.523 
1874.590 
1874.657 
1874.724 
1874.791 
1874.858 
1874.925 
1874.992 
1875.059 
1875.126 
1875.193 
1875.260 
1875.327 
1875.394 
1875.461 
1875.528 
1875.595 
1875.662 
1875.729 
1875.796 
1875.862 
1875.929 
1875.996 
1876.063 
1876.130 
1876.197 
1876.264 
1876.331 
1876.398 
1876.465 
1876.532 
1876.599 
1876.666 
1876.733 
1876.800 
1876.867 
1876.934 
1877.001 
1877.068 
1877.135 
1877.202 
1877.269 
1877.336 
1877.403 
1877.470 
1877.536 
1877.603 
1877.670 
1877.737 
1877.804 
1877.871 
1877.938 
1878.005 
1878.072 
1878.139 
1878.206 
1878.273 
1878.340 
1878.407 
1878.474 
1878.541 
1878.608 
1878.675 
1878.742 
1878.809 
1878.875 
1878.942 
1879.009 
1879.076 
1879.143 
1879.210 
1879.277 
1879.344 
1879.411 
1879.478 
1879.545 
1879.612 
1879.679 
1879.746 
1879.813 
1879.880 
1879.946 
1880.013 
1880.080 
1880.147 
1880.214 
1880.281 
1880.348 
1880.415 
1880.482 
1880.549 
1880.616 
1880.683 
1880.750 
1880.817 
1880.884 
1880.950 
1881.017 
1881.084 
1881.151 
1881.218 
1881.285 
1881.352 
1881.419 
1881.486 
1881.553 
1881.620 
1881.687 
1881.754 
1881.820 
1881.887 
1881.954 
1882.021 
1882.088 
1882.155 
1882.222 
1882.289 
1882.356 
1882.423 
1882.490 
1882.557 
1882.623 
1882.690 
1882.757 
1882.824 
1882.891 
1882.958 
1883.025 
1883.092 
1883.159 
1883.226 
1883.293 
1883.359 
1883.426 
1883.493 
1883.560 
1883.627 
1883.694 
1883.761 
1883.828 
1883.895 
1883.962 
1884.029 
1884.095 
1884.162 
1884.229 
1884.296 
1884.363 
1884.430 
1884.497 
1884.564 
1884.631 
1884.698 
1884.764 
1884.831 
1884.898 
1884.965 
1885.032 
1885.099 
1885.166 
1885.233 
1885.300 
1885.366 
1885.433 
1885.500 
1885.567 
1885.634 
1885.701 
1885.768 
1885.835 
1885.902 
1885.968 
1886.035 
1886.102 
1886.169 
1886.236 
1886.303 
1886.370 
1886.437 
1886.504 
1886.570 
1886.637 
1886.704 
1886.771 
1886.838 
1886.905 
1886.972 
1887.039 
1887.106 
1887.172 
1887.239 
1887.306 
1887.373 
1887.440 
1887.507 
1887.574 
1887.641 
1887.707 
1887.774 
1887.841 
1887.908 
1887.975 
1888.042 
1888.109 
1888.176 
1888.242 
1888.309 
1888.376 
1888.443 
1888.510 
1888.577 
1888.644 
1888.710 
1888.777 
1888.844 
1888.911 
1888.978 
1889.045 
1889.112 
1889.179 
1889.245 
1889.312 
1889.379 
1889.446 
1889.513 
1889.580 
1889.647 
1889.713 
1889.780 
1889.847 
1889.914 
1889.981 
1890.048 
1890.115 
1890.181 
1890.248 
1890.315 
1890.382 
1890.449 
1890.516 
1890.583 
1890.649 
1890.716 
1890.783 
1890.850 
1890.917 
1890.984 
1891.051 
1891.117 
1891.184 
1891.251 
1891.318 
1891.385 
1891.452 
1891.518 
1891.585 
1891.652 
1891.719 
1891.786 
1891.853 
1891.919 
1891.986 
1892.053 
1892.120 
1892.187 
1892.254 
1892.321 
1892.387 
1892.454 
1892.521 
1892.588 
1892.655 
1892.722 
1892.788 
1892.855 
1892.922 
1892.989 
1893.056 
1893.123 
1893.189 
1893.256 
1893.323 
1893.390 
1893.457 
1893.524 
1893.590 
1893.657 
1893.724 
1893.791 
1893.858 
1893.925 
1893.991 
1894.058 
1894.125 
1894.192 
1894.259 
1894.325 
1894.392 
1894.459 
1894.526 
1894.593 
1894.660 
1894.726 
1894.793 
1894.860 
1894.927 
1894.994 
1895.060 
1895.127 
1895.194 
1895.261 
1895.328 
1895.395 
1895.461 
1895.528 
1895.595 
1895.662 
1895.729 
1895.795 
1895.862 
1895.929 
1895.996 
1896.063 
1896.130 
1896.196 
1896.263 
1896.330 
1896.397 
1896.464 
1896.530 
1896.597 
1896.664 
1896.731 
1896.798 
1896.864 
1896.931 
1896.998 
1897.065 
1897.132 
1897.198 
1897.265 
1897.332 
1897.399 
1897.466 
1897.532 
1897.599 
1897.666 
1897.733 
1897.800 
1897.866 
1897.933 
1898.000 
1898.067 
1898.134 
1898.200 
1898.267 
1898.334 
1898.401 
1898.468 
1898.534 
1898.601 
1898.668 
1898.735 
1898.801 
1898.868 
1898.935 
1899.002 
1899.069 
1899.135 
1899.202 
1899.269 
1899.336 
1899.403 
1899.469 
1899.536 
1899.603 
1899.670 
1899.736 
1899.803 
1899.870 
1899.937 
1900.004 
1900.070 
1900.137 
1900.204 
1900.271 
1900.337 
1900.404 
1900.471 
1900.538 
1900.605 
1900.671 
1900.738 
1900.805 
1900.872 
1900.938 
1901.005 
1901.072 
1901.139 
1901.206 
1901.272 
1901.339 
1901.406 
1901.473 
1901.539 
1901.606 
1901.673 
1901.740 
1901.806 
1901.873 
1901.940 
1902.007 
1902.074 
1902.140 
1902.207 
1902.274 
1902.341 
1902.407 
1902.474 
1902.541 
1902.608 
1902.674 
1902.741 
1902.808 
1902.875 
1902.941 
1903.008 
1903.075 
1903.142 
1903.208 
1903.275 
1903.342 
1903.409 
1903.475 
1903.542 
1903.609 
1903.676 
1903.742 
1903.809 
1903.876 
1903.943 
1904.009 
1904.076 
1904.143 
1904.210 
1904.276 
1904.343 
1904.410 
1904.477 
1904.543 
1904.610 
1904.677 
1904.744 
1904.810 
1904.877 
1904.944 
1905.011 
1905.077 
1905.144 
1905.211 
1905.278 
1905.344 
1905.411 
1905.478 
1905.545 
1905.611 
1905.678 
1905.745 
1905.811 
1905.878 
1905.945 
1906.012 
1906.078 
1906.145 
1906.212 
1906.279 
1906.345 
1906.412 
1906.479 
1906.545 
1906.612 
1906.679 
1906.746 
1906.812 
1906.879 
1906.946 
1907.013 
1907.079 
1907.146 
1907.213 
1907.279 
1907.346 
1907.413 
1907.480 
1907.546 
1907.613 
1907.680 
1907.747 
1907.813 
1907.880 
1907.947 
1908.013 
1908.080 
1908.147 
1908.214 
1908.280 
1908.347 
1908.414 
1908.480 
1908.547 
1908.614 
1908.681 
1908.747 
1908.814 
1908.881 
1908.947 
1909.014 
1909.081 
1909.148 
1909.214 
1909.281 
1909.348 
1909.414 
1909.481 
1909.548 
1909.614 
1909.681 
1909.748 
1909.815 
1909.881 
1909.948 
1910.015 
1910.081 
1910.148 
1910.215 
1910.281 
1910.348 
1910.415 
1910.482 
1910.548 
1910.615 
1910.682 
1910.748 
1910.815 
1910.882 
1910.948 
1911.015 
1911.082 
1911.149 
1911.215 
1911.282 
1911.349 
1911.415 
1911.482 
1911.549 
1911.615 
1911.682 
1911.749 
1911.815 
1911.882 
1911.949 
1912.016 
1912.082 
1912.149 
1912.216 
1912.282 
1912.349 
1912.416 
1912.482 
1912.549 
1912.616 
1912.682 
1912.749 
1912.816 
1912.882 
1912.949 
1913.016 
1913.082 
1913.149 
1913.216 
1913.282 
1913.349 
1913.416 
1913.482 
1913.549 
1913.616 
1913.683 
1913.749 
1913.816 
1913.883 
1913.949 
1914.016 
1914.083 
1914.149 
1914.216 
1914.283 
1914.349 
1914.416 
1914.483 
1914.549 
1914.616 
1914.683 
1914.749 
1914.816 
1914.883 
1914.949 
1915.016 
1915.083 
1915.149 
1915.216 
1915.283 
1915.349 
1915.416 
1915.483 
1915.549 
1915.616 
1915.682 
1915.749 
1915.816 
1915.882 
1915.949 
1916.016 
1916.082 
1916.149 
1916.216 
1916.282 
1916.349 
1916.416 
1916.482 
1916.549 
1916.616 
1916.682 
1916.749 
1916.816 
1916.882 
1916.949 
1917.016 
1917.082 
1917.149 
1917.215 
1917.282 
1917.349 
1917.415 
1917.482 
1917.549 
1917.615 
1917.682 
1917.749 
1917.815 
1917.882 
1917.949 
1918.015 
1918.082 
1918.148 
1918.215 
1918.282 
1918.348 
1918.415 
1918.482 
1918.548 
1918.615 
1918.682 
1918.748 
1918.815 
1918.881 
1918.948 
1919.015 
1919.081 
1919.148 
1919.215 
1919.281 
1919.348 
1919.415 
1919.481 
1919.548 
1919.614 
1919.681 
1919.748 
1919.814 
1919.881 
1919.948 
1920.014 
1920.081 
1920.147 
1920.214 
1920.281 
1920.347 
1920.414 
1920.481 
1920.547 
1920.614 
1920.680 
1920.747 
1920.814 
1920.880 
1920.947 
1921.013 
1921.080 
1921.147 
1921.213 
1921.280 
1921.347 
1921.413 
1921.480 
1921.546 
1921.613 
1921.680 
1921.746 
1921.813 
1921.879 
1921.946 
1922.013 
1922.079 
1922.146 
1922.212 
1922.279 
1922.346 
1922.412 
1922.479 
1922.545 
1922.612 
1922.679 
1922.745 
1922.812 
1922.879 
1922.945 
1923.012 
1923.078 
1923.145 
1923.212 
1923.278 
1923.345 
1923.411 
1923.478 
1923.545 
1923.611 
1923.678 
1923.744 
1923.811 
1923.877 
1923.944 
1924.011 
1924.077 
1924.144 
1924.210 
1924.277 
1924.344 
1924.410 
1924.477 
1924.543 
1924.610 
1924.677 
1924.743 
1924.810 
1924.876 
1924.943 
1925.010 
1925.076 
1925.143 
1925.209 
1925.276 
1925.342 
1925.409 
1925.476 
1925.542 
1925.609 
1925.675 
1925.742 
1925.808 
1925.875 
1925.942 
1926.008 
1926.075 
1926.141 
1926.208 
1926.275 
1926.341 
1926.408 
1926.474 
1926.541 
1926.607 
1926.674 
1926.741 
1926.807 
1926.874 
1926.940 
1927.007 
1927.073 
1927.140 
1927.207 
1927.273 
1927.340 
1927.406 
1927.473 
1927.539 
1927.606 
1927.673 
1927.739 
1927.806 
1927.872 
1927.939 
1928.005 
1928.072 
1928.138 
1928.205 
1928.272 
1928.338 
1928.405 
1928.471 
1928.538 
1928.604 
1928.671 
1928.737 
1928.804 
1928.871 
1928.937 
1929.004 
1929.070 
1929.137 
1929.203 
1929.270 
1929.336 
1929.403 
1929.470 
1929.536 
1929.603 
1929.669 
1929.736 
1929.802 
1929.869 
1929.935 
1930.002 
1930.069 
1930.135 
1930.202 
1930.268 
1930.335 
1930.401 
1930.468 
1930.534 
1930.601 
1930.667 
1930.734 
1930.800 
1930.867 
1930.934 
1931.000 
1931.067 
1931.133 
1931.200 
1931.266 
1931.333 
1931.399 
1931.466 
1931.532 
1931.599 
1931.665 
1931.732 
1931.799 
1931.865 
1931.932 
1931.998 
1932.065 
1932.131 
1932.198 
1932.264 
1932.331 
1932.397 
1932.464 
1932.530 
1932.597 
1932.663 
1932.730 
1932.796 
1932.863 
1932.930 
1932.996 
1933.063 
1933.129 
1933.196 
1933.262 
1933.329 
1933.395 
1933.462 
1933.528 
1933.595 
1933.661 
1933.728 
1933.794 
1933.861 
1933.927 
1933.994 
1934.060 
1934.127 
1934.193 
1934.260 
1934.326 
1934.393 
1934.459 
1934.526 
1934.592 
1934.659 
1934.725 
1934.792 
1934.858 
1934.925 
1934.991 
1935.058 
1935.125 
1935.191 
1935.258 
1935.324 
1935.391 
1935.457 
1935.524 
1935.590 
1935.657 
1935.723 
1935.790 
1935.856 
1935.923 
1935.989 
1936.056 
1936.122 
1936.189 
1936.255 
1936.322 
1936.388 
1936.455 
1936.521 
1936.588 
1936.654 
1936.721 
1936.787 
1936.854 
1936.920 
1936.986 
1937.053 
1937.119 
1937.186 
1937.252 
1937.319 
1937.385 
1937.452 
1937.518 
1937.585 
1937.651 
1937.718 
1937.784 
1937.851 
1937.917 
1937.984 
1938.050 
1938.117 
1938.183 
1938.250 
1938.316 
1938.383 
1938.449 
1938.516 
1938.582 
1938.649 
1938.715 
1938.782 
1938.848 
1938.915 
1938.981 
1939.048 
1939.114 
1939.180 
1939.247 
1939.313 
1939.380 
1939.446 
1939.513 
1939.579 
1939.646 
1939.712 
1939.779 
1939.845 
1939.912 
1939.978 
1940.045 
1940.111 
1940.178 
1940.244 
1940.310 
1940.377 
1940.443 
1940.510 
1940.576 
1940.643 
1940.709 
1940.776 
1940.842 
1940.909 
1940.975 
1941.042 
1941.108 
1941.174 
1941.241 
1941.307 
1941.374 
1941.440 
1941.507 
1941.573 
1941.640 
1941.706 
1941.773 
1941.839 
1941.906 
1941.972 
1942.038 
1942.105 
1942.171 
1942.238 
1942.304 
1942.371 
1942.437 
1942.504 
1942.570 
1942.636 
1942.703 
1942.769 
1942.836 
1942.902 
1942.969 
1943.035 
1943.102 
1943.168 
1943.234 
1943.301 
1943.367 
1943.434 
1943.500 
1943.567 
1943.633 
1943.700 
1943.766 
1943.832 
1943.899 
1943.965 
1944.032 
1944.098 
1944.165 
1944.231 
1944.298 
1944.364 
1944.430 
1944.497 
1944.563 
1944.630 
1944.696 
1944.763 
1944.829 
1944.895 
1944.962 
1945.028 
1945.095 
1945.161 
1945.228 
1945.294 
1945.360 
1945.427 
1945.493 
1945.560 
1945.626 
1945.693 
1945.759 
1945.825 
1945.892 
1945.958 
1946.025 
1946.091 
1946.157 
1946.224 
1946.290 
1946.357 
1946.423 
1946.490 
1946.556 
1946.622 
1946.689 
1946.755 
1946.822 
1946.888 
1946.955 
1947.021 
1947.087 
1947.154 
1947.220 
1947.287 
1947.353 
1947.419 
1947.486 
1947.552 
1947.619 
1947.685 
1947.751 
1947.818 
1947.884 
1947.951 
1948.017 
1948.083 
1948.150 
1948.216 
1948.283 
1948.349 
1948.416 
1948.482 
1948.548 
1948.615 
1948.681 
1948.748 
1948.814 
1948.880 
1948.947 
1949.013 
1949.080 
1949.146 
1949.212 
1949.279 
1949.345 
1949.411 
1949.478 
1949.544 
1949.611 
1949.677 
1949.743 
1949.810 
1949.876 
1949.943 
1950.009 
1950.075 
1950.142 
1950.208 
1950.275 
1950.341 
1950.407 
1950.474 
1950.540 
1950.607 
1950.673 
1950.739 
1950.806 
1950.872 
1950.938 
1951.005 
1951.071 
1951.138 
1951.204 
1951.270 
1951.337 
1951.403 
1951.470 
1951.536 
1951.602 
1951.669 
1951.735 
1951.801 
1951.868 
1951.934 
1952.001 
1952.067 
1952.133 
1952.200 
1952.266 
1952.332 
1952.399 
1952.465 
1952.532 
1952.598 
1952.664 
1952.731 
1952.797 
1952.863 
1952.930 
1952.996 
1953.062 
1953.129 
1953.195 
1953.262 
1953.328 
1953.394 
1953.461 
1953.527 
1953.593 
1953.660 
1953.726 
1953.792 
1953.859 
1953.925 
1953.992 
1954.058 
1954.124 
1954.191 
1954.257 
1954.323 
1954.390 
1954.456 
1954.522 
1954.589 
1954.655 
1954.721 
1954.788 
1954.854 
1954.921 
1954.987 
1955.053 
1955.120 
1955.186 
1955.252 
1955.319 
1955.385 
1955.451 
1955.518 
1955.584 
1955.650 
1955.717 
1955.783 
1955.849 
1955.916 
1955.982 
1956.048 
1956.115 
1956.181 
1956.247 
1956.314 
1956.380 
1956.447 
1956.513 
1956.579 
1956.646 
1956.712 
1956.778 
1956.845 
1956.911 
1956.977 
1957.044 
1957.110 
1957.176 
1957.243 
1957.309 
1957.375 
1957.442 
1957.508 
1957.574 
1957.641 
1957.707 
1957.773 
1957.840 
1957.906 
1957.972 
1958.039 
1958.105 
1958.171 
1958.238 
1958.304 
1958.370 
1958.436 
1958.503 
1958.569 
1958.635 
1958.702 
1958.768 
1958.834 
1958.901 
1958.967 
1959.033 
1959.100 
1959.166 
1959.232 
1959.299 
1959.365 
1959.431 
1959.498 
1959.564 
1959.630 
1959.697 
1959.763 
1959.829 
1959.896 
1959.962 
1960.028 
1960.094 
1960.161 
1960.227 
1960.293 
1960.360 
1960.426 
1960.492 
1960.559 
1960.625 
1960.691 
1960.758 
1960.824 
1960.890 
1960.956 
1961.023 
1961.089 
1961.155 
1961.222 
1961.288 
1961.354 
1961.421 
1961.487 
1961.553 
1961.620 
1961.686 
1961.752 
1961.818 
1961.885 
1961.951 
1962.017 
1962.084 
1962.150 
1962.216 
1962.282 
1962.349 
1962.415 
1962.481 
1962.548 
1962.614 
1962.680 
1962.747 
1962.813 
1962.879 
1962.945 
1963.012 
1963.078 
1963.144 
1963.211 
1963.277 
1963.343 
1963.409 
1963.476 
1963.542 
1963.608 
1963.675 
1963.741 
1963.807 
1963.873 
1963.940 
1964.006 
1964.072 
1964.139 
1964.205 
1964.271 
1964.337 
1964.404 
1964.470 
1964.536 
1964.602 
1964.669 
1964.735 
1964.801 
1964.868 
1964.934 
1965.000 
1965.066 
1965.133 
1965.199 
1965.265 
1965.332 
1965.398 
1965.464 
1965.530 
1965.597 
1965.663 
1965.729 
1965.795 
1965.862 
1965.928 
1965.994 
1966.060 
1966.127 
1966.193 
1966.259 
1966.326 
1966.392 
1966.458 
1966.524 
1966.591 
1966.657 
1966.723 
1966.789 
1966.856 
1966.922 
1966.988 
1967.054 
1967.121 
1967.187 
1967.253 
1967.319 
1967.386 
1967.452 
1967.518 
1967.584 
1967.651 
1967.717 
1967.783 
1967.849 
1967.916 
1967.982 
1968.048 
1968.114 
1968.181 
1968.247 
1968.313 
1968.379 
1968.446 
1968.512 
1968.578 
1968.644 
1968.711 
1968.777 
1968.843 
1968.909 
1968.976 
1969.042 
1969.108 
1969.174 
1969.241 
1969.307 
1969.373 
1969.439 
1969.506 
1969.572 
1969.638 
1969.704 
1969.771 
1969.837 
1969.903 
1969.969 
1970.035 
1970.102 
1970.168 
1970.234 
1970.300 
1970.367 
1970.433 
1970.499 
1970.565 
1970.632 
1970.698 
1970.764 
1970.830 
1970.896 
1970.963 
1971.029 
1971.095 
1971.161 
1971.228 
1971.294 
1971.360 
1971.426 
1971.492 
1971.559 
1971.625 
1971.691 
1971.757 
1971.824 
1971.890 
1971.956 
1972.022 
1972.088 
1972.155 
1972.221 
1972.287 
1972.353 
1972.420 
1972.486 
1972.552 
1972.618 
1972.684 
1972.751 
1972.817 
1972.883 
1972.949 
1973.015 
1973.082 
1973.148 
1973.214 
1973.280 
1973.347 
1973.413 
1973.479 
1973.545 
1973.611 
1973.678 
1973.744 
1973.810 
1973.876 
1973.942 
1974.009 
1974.075 
1974.141 
1974.207 
1974.273 
1974.340 
1974.406 
1974.472 
1974.538 
1974.604 
1974.671 
1974.737 
1974.803 
1974.869 
1974.935 
1975.002 
1975.068 
1975.134 
1975.200 
1975.266 
1975.333 
1975.399 
1975.465 
1975.531 
1975.597 
1975.664 
1975.730 
1975.796 
1975.862 
1975.928 
1975.994 
1976.061 
1976.127 
1976.193 
1976.259 
1976.325 
1976.392 
1976.458 
1976.524 
1976.590 
1976.656 
1976.723 
1976.789 
1976.855 
1976.921 
1976.987 
1977.053 
1977.120 
1977.186 
1977.252 
1977.318 
1977.384 
1977.450 
1977.517 
1977.583 
1977.649 
1977.715 
1977.781 
1977.848 
1977.914 
1977.980 
1978.046 
1978.112 
1978.178 
1978.245 
1978.311 
1978.377 
1978.443 
1978.509 
1978.575 
1978.642 
1978.708 
1978.774 
1978.840 
1978.906 
1978.972 
1979.039 
1979.105 
1979.171 
1979.237 
1979.303 
1979.369 
1979.436 
1979.502 
1979.568 
1979.634 
1979.700 
1979.766 
1979.833 
1979.899 
1979.965 
1980.031 
1980.097 
1980.163 
1980.229 
1980.296 
1980.362 
1980.428 
1980.494 
1980.560 
1980.626 
1980.693 
1980.759 
1980.825 
1980.891 
1980.957 
1981.023 
1981.089 
1981.156 
1981.222 
1981.288 
1981.354 
1981.420 
1981.486 
1981.552 
1981.619 
1981.685 
1981.751 
1981.817 
1981.883 
1981.949 
1982.015 
1982.082 
1982.148 
1982.214 
1982.280 
1982.346 
1982.412 
1982.478 
1982.545 
1982.611 
1982.677 
1982.743 
1982.809 
1982.875 
1982.941 
1983.007 
1983.074 
1983.140 
1983.206 
1983.272 
1983.338 
1983.404 
1983.470 
1983.537 
1983.603 
1983.669 
1983.735 
1983.801 
1983.867 
1983.933 
1983.999 
1984.066 
1984.132 
1984.198 
1984.264 
1984.330 
1984.396 
1984.462 
1984.528 
1984.595 
1984.661 
1984.727 
1984.793 
1984.859 
1984.925 
1984.991 
1985.057 
1985.123 
1985.190 
1985.256 
1985.322 
1985.388 
1985.454 
1985.520 
1985.586 
1985.652 
1985.719 
1985.785 
1985.851 
1985.917 
1985.983 
1986.049 
1986.115 
1986.181 
1986.247 
1986.313 
1986.380 
1986.446 
1986.512 
1986.578 
1986.644 
1986.710 
1986.776 
1986.842 
1986.908 
1986.975 
1987.041 
1987.107 
1987.173 
1987.239 
1987.305 
1987.371 
1987.437 
1987.503 
1987.569 
1987.636 
1987.702 
1987.768 
1987.834 
1987.900 
1987.966 
1988.032 
1988.098 
1988.164 
1988.230 
1988.296 
1988.363 
1988.429 
1988.495 
1988.561 
1988.627 
1988.693 
1988.759 
1988.825 
1988.891 
1988.957 
1989.023 
1989.090 
1989.156 
1989.222 
1989.288 
1989.354 
1989.420 
1989.486 
1989.552 
1989.618 
1989.684 
1989.750 
1989.816 
1989.883 
1989.949 
1990.015 
1990.081 
1990.147 
1990.213 
1990.279 
1990.345 
1990.411 
1990.477 
1990.543 
1990.609 
1990.675 
1990.742 
1990.808 
1990.874 
1990.940 
1991.006 
1991.072 
1991.138 
1991.204 
1991.270 
1991.336 
1991.402 
1991.468 
1991.534 
1991.600 
1991.666 
1991.733 
1991.799 
1991.865 
1991.931 
1991.997 
1992.063 
1992.129 
1992.195 
1992.261 
1992.327 
1992.393 
1992.459 
1992.525 
1992.591 
1992.657 
1992.723 
1992.790 
1992.856 
1992.922 
1992.988 
1993.054 
1993.120 
1993.186 
1993.252 
1993.318 
1993.384 
1993.450 
1993.516 
1993.582 
1993.648 
1993.714 
1993.780 
1993.846 
1993.912 
1993.978 
1994.045 
1994.111 
1994.177 
1994.243 
1994.309 
1994.375 
1994.441 
1994.507 
1994.573 
1994.639 
1994.705 
1994.771 
1994.837 
1994.903 
1994.969 
1995.035 
1995.101 
1995.167 
1995.233 
1995.299 
1995.365 
1995.431 
1995.497 
1995.563 
1995.629 
1995.696 
1995.762 
1995.828 
1995.894 
1995.960 
1996.026 
1996.092 
1996.158 
1996.224 
1996.290 
1996.356 
1996.422 
1996.488 
1996.554 
1996.620 
1996.686 
1996.752 
1996.818 
1996.884 
1996.950 
1997.016 
1997.082 
1997.148 
1997.214 
1997.280 
1997.346 
1997.412 
1997.478 
1997.544 
1997.610 
1997.676 
1997.742 
1997.808 
1997.874 
1997.940 
1998.006 
1998.072 
1998.138 
1998.204 
1998.270 
1998.336 
1998.402 
1998.468 
1998.534 
1998.600 
1998.667 
1998.733 
1998.799 
1998.865 
1998.931 
1998.997 
1999.063 
1999.129 
1999.195 
1999.261 
1999.327 
1999.393 
1999.459 
1999.525 
1999.591 
1999.657 
1999.723 
1999.789 
1999.855 
1999.921 
1999.987 
