# Wavelength table for hrs,echb,23
2390.000 
2390.027 
2390.054 
2390.081 
2390.108 
2390.135 
2390.163 
2390.190 
2390.217 
2390.244 
2390.271 
2390.298 
2390.325 
2390.352 
2390.379 
2390.406 
2390.433 
2390.461 
2390.488 
2390.515 
2390.542 
2390.569 
2390.596 
2390.623 
2390.650 
2390.677 
2390.704 
2390.731 
2390.758 
2390.786 
2390.813 
2390.840 
2390.867 
2390.894 
2390.921 
2390.948 
2390.975 
2391.002 
2391.029 
2391.056 
2391.083 
2391.110 
2391.137 
2391.164 
2391.192 
2391.219 
2391.246 
2391.273 
2391.300 
2391.327 
2391.354 
2391.381 
2391.408 
2391.435 
2391.462 
2391.489 
2391.516 
2391.543 
2391.570 
2391.597 
2391.624 
2391.651 
2391.679 
2391.706 
2391.733 
2391.760 
2391.787 
2391.814 
2391.841 
2391.868 
2391.895 
2391.922 
2391.949 
2391.976 
2392.003 
2392.030 
2392.057 
2392.084 
2392.111 
2392.138 
2392.165 
2392.192 
2392.219 
2392.246 
2392.273 
2392.300 
2392.327 
2392.354 
2392.381 
2392.408 
2392.435 
2392.462 
2392.490 
2392.517 
2392.544 
2392.571 
2392.598 
2392.625 
2392.652 
2392.679 
2392.706 
2392.733 
2392.760 
2392.787 
2392.814 
2392.841 
2392.868 
2392.895 
2392.922 
2392.949 
2392.976 
2393.003 
2393.030 
2393.057 
2393.084 
2393.111 
2393.138 
2393.165 
2393.192 
2393.219 
2393.246 
2393.273 
2393.300 
2393.327 
2393.354 
2393.381 
2393.408 
2393.435 
2393.462 
2393.489 
2393.516 
2393.543 
2393.570 
2393.597 
2393.624 
2393.651 
2393.678 
2393.705 
2393.731 
2393.758 
2393.785 
2393.812 
2393.839 
2393.866 
2393.893 
2393.920 
2393.947 
2393.974 
2394.001 
2394.028 
2394.055 
2394.082 
2394.109 
2394.136 
2394.163 
2394.190 
2394.217 
2394.244 
2394.271 
2394.298 
2394.325 
2394.352 
2394.379 
2394.406 
2394.433 
2394.460 
2394.487 
2394.514 
2394.540 
2394.567 
2394.594 
2394.621 
2394.648 
2394.675 
2394.702 
2394.729 
2394.756 
2394.783 
2394.810 
2394.837 
2394.864 
2394.891 
2394.918 
2394.945 
2394.972 
2394.999 
2395.025 
2395.052 
2395.079 
2395.106 
2395.133 
2395.160 
2395.187 
2395.214 
2395.241 
2395.268 
2395.295 
2395.322 
2395.349 
2395.376 
2395.403 
2395.429 
2395.456 
2395.483 
2395.510 
2395.537 
2395.564 
2395.591 
2395.618 
2395.645 
2395.672 
2395.699 
2395.726 
2395.752 
2395.779 
2395.806 
2395.833 
2395.860 
2395.887 
2395.914 
2395.941 
2395.968 
2395.995 
2396.022 
2396.048 
2396.075 
2396.102 
2396.129 
2396.156 
2396.183 
2396.210 
2396.237 
2396.264 
2396.291 
2396.317 
2396.344 
2396.371 
2396.398 
2396.425 
2396.452 
2396.479 
2396.506 
2396.533 
2396.560 
2396.586 
2396.613 
2396.640 
2396.667 
2396.694 
2396.721 
2396.748 
2396.775 
2396.801 
2396.828 
2396.855 
2396.882 
2396.909 
2396.936 
2396.963 
2396.990 
2397.016 
2397.043 
2397.070 
2397.097 
2397.124 
2397.151 
2397.178 
2397.205 
2397.231 
2397.258 
2397.285 
2397.312 
2397.339 
2397.366 
2397.393 
2397.419 
2397.446 
2397.473 
2397.500 
2397.527 
2397.554 
2397.581 
2397.607 
2397.634 
2397.661 
2397.688 
2397.715 
2397.742 
2397.769 
2397.795 
2397.822 
2397.849 
2397.876 
2397.903 
2397.930 
2397.957 
2397.983 
2398.010 
2398.037 
2398.064 
2398.091 
2398.118 
2398.144 
2398.171 
2398.198 
2398.225 
2398.252 
2398.279 
2398.305 
2398.332 
2398.359 
2398.386 
2398.413 
2398.440 
2398.466 
2398.493 
2398.520 
2398.547 
2398.574 
2398.600 
2398.627 
2398.654 
2398.681 
2398.708 
2398.735 
2398.761 
2398.788 
2398.815 
2398.842 
2398.869 
2398.895 
2398.922 
2398.949 
2398.976 
2399.003 
2399.030 
2399.056 
2399.083 
2399.110 
2399.137 
2399.164 
2399.190 
2399.217 
2399.244 
2399.271 
2399.298 
2399.324 
2399.351 
2399.378 
2399.405 
2399.432 
2399.458 
2399.485 
2399.512 
2399.539 
2399.565 
2399.592 
2399.619 
2399.646 
2399.673 
2399.699 
2399.726 
2399.753 
2399.780 
2399.807 
2399.833 
2399.860 
2399.887 
2399.914 
2399.940 
2399.967 
2399.994 
2400.021 
2400.048 
2400.074 
2400.101 
2400.128 
2400.155 
2400.181 
2400.208 
2400.235 
2400.262 
2400.288 
2400.315 
2400.342 
2400.369 
2400.396 
2400.422 
2400.449 
2400.476 
2400.503 
2400.529 
2400.556 
2400.583 
2400.610 
2400.636 
2400.663 
2400.690 
2400.717 
2400.743 
2400.770 
2400.797 
2400.824 
2400.850 
2400.877 
2400.904 
2400.931 
2400.957 
2400.984 
2401.011 
2401.038 
2401.064 
2401.091 
2401.118 
2401.145 
2401.171 
2401.198 
2401.225 
2401.252 
2401.278 
2401.305 
2401.332 
2401.358 
2401.385 
2401.412 
2401.439 
2401.465 
2401.492 
2401.519 
2401.546 
2401.572 
2401.599 
2401.626 
2401.652 
2401.679 
2401.706 
2401.733 
2401.759 
2401.786 
2401.813 
2401.839 
2401.866 
2401.893 
2401.920 
2401.946 
2401.973 
2402.000 
2402.026 
2402.053 
2402.080 
2402.107 
2402.133 
2402.160 
2402.187 
2402.213 
2402.240 
2402.267 
2402.294 
2402.320 
2402.347 
2402.374 
2402.400 
2402.427 
2402.454 
2402.480 
2402.507 
2402.534 
2402.560 
2402.587 
2402.614 
2402.641 
2402.667 
2402.694 
2402.721 
2402.747 
2402.774 
2402.801 
2402.827 
2402.854 
2402.881 
2402.907 
2402.934 
2402.961 
2402.987 
2403.014 
2403.041 
2403.067 
2403.094 
2403.121 
2403.148 
2403.174 
2403.201 
2403.228 
2403.254 
2403.281 
2403.308 
2403.334 
2403.361 
2403.388 
2403.414 
2403.441 
2403.468 
2403.494 
2403.521 
2403.548 
2403.574 
2403.601 
2403.627 
2403.654 
2403.681 
2403.707 
2403.734 
2403.761 
2403.787 
2403.814 
2403.841 
2403.867 
2403.894 
2403.921 
2403.947 
2403.974 
2404.001 
2404.027 
2404.054 
2404.081 
2404.107 
2404.134 
2404.160 
2404.187 
2404.214 
2404.240 
2404.267 
2404.294 
2404.320 
2404.347 
2404.374 
2404.400 
2404.427 
2404.453 
2404.480 
2404.507 
2404.533 
2404.560 
2404.587 
2404.613 
2404.640 
2404.666 
2404.693 
2404.720 
2404.746 
2404.773 
2404.800 
2404.826 
2404.853 
2404.879 
2404.906 
2404.933 
2404.959 
2404.986 
2405.012 
2405.039 
2405.066 
2405.092 
2405.119 
2405.146 
2405.172 
2405.199 
2405.225 
2405.252 
2405.279 
2405.305 
2405.332 
2405.358 
2405.385 
2405.412 
2405.438 
2405.465 
2405.491 
2405.518 
2405.545 
2405.571 
2405.598 
2405.624 
2405.651 
2405.678 
2405.704 
2405.731 
2405.757 
2405.784 
2405.810 
2405.837 
2405.864 
2405.890 
2405.917 
2405.943 
2405.970 
2405.997 
2406.023 
2406.050 
2406.076 
2406.103 
2406.129 
2406.156 
2406.183 
2406.209 
2406.236 
2406.262 
2406.289 
2406.315 
2406.342 
2406.369 
2406.395 
2406.422 
2406.448 
2406.475 
2406.501 
2406.528 
2406.555 
2406.581 
2406.608 
2406.634 
2406.661 
2406.687 
2406.714 
2406.740 
2406.767 
2406.794 
2406.820 
2406.847 
2406.873 
2406.900 
2406.926 
2406.953 
2406.979 
2407.006 
2407.032 
2407.059 
2407.086 
2407.112 
2407.139 
2407.165 
2407.192 
2407.218 
2407.245 
2407.271 
2407.298 
2407.324 
2407.351 
2407.377 
2407.404 
2407.431 
2407.457 
2407.484 
2407.510 
2407.537 
2407.563 
2407.590 
2407.616 
2407.643 
2407.669 
2407.696 
2407.722 
2407.749 
2407.775 
2407.802 
2407.828 
2407.855 
2407.881 
2407.908 
2407.935 
2407.961 
2407.988 
2408.014 
2408.041 
2408.067 
2408.094 
2408.120 
2408.147 
2408.173 
2408.200 
2408.226 
2408.253 
2408.279 
2408.306 
2408.332 
2408.359 
2408.385 
2408.412 
2408.438 
2408.465 
2408.491 
2408.518 
2408.544 
2408.571 
2408.597 
2408.624 
2408.650 
2408.677 
2408.703 
2408.730 
2408.756 
2408.783 
2408.809 
2408.836 
2408.862 
2408.889 
2408.915 
2408.941 
2408.968 
2408.994 
2409.021 
2409.047 
2409.074 
2409.100 
2409.127 
2409.153 
2409.180 
2409.206 
2409.233 
2409.259 
2409.286 
2409.312 
2409.339 
2409.365 
2409.392 
2409.418 
2409.444 
2409.471 
2409.497 
2409.524 
2409.550 
2409.577 
2409.603 
2409.630 
2409.656 
2409.683 
2409.709 
2409.736 
2409.762 
2409.788 
2409.815 
2409.841 
2409.868 
2409.894 
2409.921 
2409.947 
2409.974 
2410.000 
2410.027 
2410.053 
2410.079 
2410.106 
2410.132 
2410.159 
2410.185 
2410.212 
2410.238 
2410.265 
2410.291 
2410.317 
2410.344 
2410.370 
2410.397 
2410.423 
2410.450 
2410.476 
2410.502 
2410.529 
2410.555 
2410.582 
2410.608 
2410.635 
2410.661 
2410.687 
2410.714 
2410.740 
2410.767 
2410.793 
2410.820 
2410.846 
2410.872 
2410.899 
2410.925 
2410.952 
2410.978 
2411.004 
2411.031 
2411.057 
2411.084 
2411.110 
2411.137 
2411.163 
2411.189 
2411.216 
2411.242 
2411.269 
2411.295 
2411.321 
2411.348 
2411.374 
2411.401 
2411.427 
2411.453 
2411.480 
2411.506 
2411.533 
2411.559 
2411.585 
2411.612 
2411.638 
2411.665 
2411.691 
2411.717 
2411.744 
2411.770 
2411.797 
2411.823 
2411.849 
2411.876 
2411.902 
2411.928 
2411.955 
2411.981 
2412.008 
2412.034 
2412.060 
2412.087 
2412.113 
2412.139 
2412.166 
2412.192 
2412.219 
2412.245 
2412.271 
2412.298 
2412.324 
2412.350 
2412.377 
2412.403 
2412.430 
2412.456 
2412.482 
2412.509 
2412.535 
2412.561 
2412.588 
2412.614 
2412.641 
2412.667 
2412.693 
2412.720 
2412.746 
2412.772 
2412.799 
2412.825 
2412.851 
2412.878 
2412.904 
2412.930 
2412.957 
2412.983 
2413.009 
2413.036 
2413.062 
2413.089 
2413.115 
2413.141 
2413.168 
2413.194 
2413.220 
2413.247 
2413.273 
2413.299 
2413.326 
2413.352 
2413.378 
2413.405 
2413.431 
2413.457 
2413.484 
2413.510 
2413.536 
2413.563 
2413.589 
2413.615 
2413.642 
2413.668 
2413.694 
2413.721 
2413.747 
2413.773 
2413.800 
2413.826 
2413.852 
2413.878 
2413.905 
2413.931 
2413.957 
2413.984 
2414.010 
2414.036 
2414.063 
2414.089 
2414.115 
2414.142 
2414.168 
2414.194 
2414.221 
2414.247 
2414.273 
2414.299 
2414.326 
2414.352 
2414.378 
2414.405 
2414.431 
2414.457 
2414.484 
2414.510 
2414.536 
2414.562 
2414.589 
2414.615 
2414.641 
2414.668 
2414.694 
2414.720 
2414.747 
2414.773 
2414.799 
2414.825 
2414.852 
2414.878 
2414.904 
2414.931 
2414.957 
2414.983 
2415.009 
2415.036 
2415.062 
2415.088 
2415.115 
2415.141 
2415.167 
2415.193 
2415.220 
2415.246 
2415.272 
2415.298 
2415.325 
2415.351 
2415.377 
2415.404 
2415.430 
2415.456 
2415.482 
2415.509 
2415.535 
2415.561 
2415.587 
2415.614 
2415.640 
2415.666 
2415.692 
2415.719 
2415.745 
2415.771 
2415.797 
2415.824 
2415.850 
2415.876 
2415.902 
2415.929 
2415.955 
2415.981 
2416.007 
2416.034 
2416.060 
2416.086 
2416.112 
2416.139 
2416.165 
2416.191 
2416.217 
2416.244 
2416.270 
2416.296 
2416.322 
2416.349 
2416.375 
2416.401 
2416.427 
2416.454 
2416.480 
2416.506 
2416.532 
2416.559 
2416.585 
2416.611 
2416.637 
2416.663 
2416.690 
2416.716 
2416.742 
2416.768 
2416.795 
2416.821 
2416.847 
2416.873 
2416.899 
2416.926 
2416.952 
2416.978 
2417.004 
2417.031 
2417.057 
2417.083 
2417.109 
2417.135 
2417.162 
2417.188 
2417.214 
2417.240 
2417.266 
2417.293 
2417.319 
2417.345 
2417.371 
2417.397 
2417.424 
2417.450 
2417.476 
2417.502 
2417.528 
2417.555 
2417.581 
2417.607 
2417.633 
2417.659 
2417.686 
2417.712 
2417.738 
2417.764 
2417.790 
2417.817 
2417.843 
2417.869 
2417.895 
2417.921 
2417.948 
2417.974 
2418.000 
2418.026 
2418.052 
2418.078 
2418.105 
2418.131 
2418.157 
2418.183 
2418.209 
2418.235 
2418.262 
2418.288 
2418.314 
2418.340 
2418.366 
2418.393 
2418.419 
2418.445 
2418.471 
2418.497 
2418.523 
2418.550 
2418.576 
2418.602 
2418.628 
2418.654 
2418.680 
2418.706 
2418.733 
2418.759 
2418.785 
2418.811 
2418.837 
2418.863 
2418.890 
2418.916 
2418.942 
2418.968 
2418.994 
2419.020 
2419.046 
2419.073 
2419.099 
2419.125 
2419.151 
2419.177 
2419.203 
2419.229 
2419.256 
2419.282 
2419.308 
2419.334 
2419.360 
2419.386 
2419.412 
2419.439 
2419.465 
2419.491 
2419.517 
2419.543 
2419.569 
2419.595 
2419.621 
2419.648 
2419.674 
2419.700 
2419.726 
2419.752 
2419.778 
2419.804 
2419.830 
2419.857 
2419.883 
2419.909 
2419.935 
2419.961 
2419.987 
2420.013 
2420.039 
2420.066 
2420.092 
2420.118 
2420.144 
2420.170 
2420.196 
2420.222 
2420.248 
2420.274 
2420.301 
2420.327 
2420.353 
2420.379 
2420.405 
2420.431 
2420.457 
2420.483 
2420.509 
2420.535 
2420.562 
2420.588 
2420.614 
2420.640 
2420.666 
2420.692 
2420.718 
2420.744 
2420.770 
2420.796 
2420.822 
2420.849 
2420.875 
2420.901 
2420.927 
2420.953 
2420.979 
2421.005 
2421.031 
2421.057 
2421.083 
2421.109 
2421.135 
2421.162 
2421.188 
2421.214 
2421.240 
2421.266 
2421.292 
2421.318 
2421.344 
2421.370 
2421.396 
2421.422 
2421.448 
2421.474 
2421.500 
2421.527 
2421.553 
2421.579 
2421.605 
2421.631 
2421.657 
2421.683 
2421.709 
2421.735 
2421.761 
2421.787 
2421.813 
2421.839 
2421.865 
2421.891 
2421.917 
2421.943 
2421.969 
2421.996 
2422.022 
2422.048 
2422.074 
2422.100 
2422.126 
2422.152 
2422.178 
2422.204 
2422.230 
2422.256 
2422.282 
2422.308 
2422.334 
2422.360 
2422.386 
2422.412 
2422.438 
2422.464 
2422.490 
2422.516 
2422.542 
2422.568 
2422.594 
2422.620 
2422.646 
2422.673 
2422.699 
2422.725 
2422.751 
2422.777 
2422.803 
2422.829 
2422.855 
2422.881 
2422.907 
2422.933 
2422.959 
2422.985 
2423.011 
2423.037 
2423.063 
2423.089 
2423.115 
2423.141 
2423.167 
2423.193 
2423.219 
2423.245 
2423.271 
2423.297 
2423.323 
2423.349 
2423.375 
2423.401 
2423.427 
2423.453 
2423.479 
2423.505 
2423.531 
2423.557 
2423.583 
2423.609 
2423.635 
2423.661 
2423.687 
2423.713 
2423.739 
2423.765 
2423.791 
2423.817 
2423.843 
2423.869 
2423.895 
2423.921 
2423.947 
2423.973 
2423.999 
2424.025 
2424.051 
2424.077 
2424.103 
2424.129 
2424.155 
2424.181 
2424.207 
2424.233 
2424.258 
2424.284 
2424.310 
2424.336 
2424.362 
2424.388 
2424.414 
2424.440 
2424.466 
2424.492 
2424.518 
2424.544 
2424.570 
2424.596 
2424.622 
2424.648 
2424.674 
2424.700 
2424.726 
2424.752 
2424.778 
2424.804 
2424.830 
2424.856 
2424.882 
2424.908 
2424.933 
2424.959 
2424.985 
2425.011 
2425.037 
2425.063 
2425.089 
2425.115 
2425.141 
2425.167 
2425.193 
2425.219 
2425.245 
2425.271 
2425.297 
2425.323 
2425.349 
2425.375 
2425.400 
2425.426 
2425.452 
2425.478 
2425.504 
2425.530 
2425.556 
2425.582 
2425.608 
2425.634 
2425.660 
2425.686 
2425.712 
2425.738 
2425.763 
2425.789 
2425.815 
2425.841 
2425.867 
2425.893 
2425.919 
2425.945 
2425.971 
2425.997 
2426.023 
2426.049 
2426.074 
2426.100 
2426.126 
2426.152 
2426.178 
2426.204 
2426.230 
2426.256 
2426.282 
2426.308 
2426.334 
2426.359 
2426.385 
2426.411 
2426.437 
2426.463 
2426.489 
2426.515 
2426.541 
2426.567 
2426.592 
2426.618 
2426.644 
2426.670 
2426.696 
2426.722 
2426.748 
2426.774 
2426.800 
2426.826 
2426.851 
2426.877 
2426.903 
2426.929 
2426.955 
2426.981 
2427.007 
2427.033 
2427.058 
2427.084 
2427.110 
2427.136 
2427.162 
2427.188 
2427.214 
2427.240 
2427.265 
2427.291 
2427.317 
2427.343 
2427.369 
2427.395 
2427.421 
2427.447 
2427.472 
2427.498 
2427.524 
2427.550 
2427.576 
2427.602 
2427.628 
2427.653 
2427.679 
2427.705 
2427.731 
2427.757 
2427.783 
2427.809 
2427.834 
2427.860 
2427.886 
2427.912 
2427.938 
2427.964 
2427.990 
2428.015 
2428.041 
2428.067 
2428.093 
2428.119 
2428.145 
2428.170 
2428.196 
2428.222 
2428.248 
2428.274 
2428.300 
2428.325 
2428.351 
2428.377 
2428.403 
2428.429 
2428.455 
2428.480 
2428.506 
2428.532 
2428.558 
2428.584 
2428.610 
2428.635 
2428.661 
2428.687 
2428.713 
2428.739 
2428.765 
2428.790 
2428.816 
2428.842 
2428.868 
2428.894 
2428.919 
2428.945 
2428.971 
2428.997 
2429.023 
2429.049 
2429.074 
2429.100 
2429.126 
2429.152 
2429.178 
2429.203 
2429.229 
2429.255 
2429.281 
2429.307 
2429.332 
2429.358 
2429.384 
2429.410 
2429.436 
2429.461 
2429.487 
2429.513 
2429.539 
2429.565 
2429.590 
2429.616 
2429.642 
2429.668 
2429.694 
2429.719 
2429.745 
2429.771 
2429.797 
2429.822 
2429.848 
2429.874 
2429.900 
2429.926 
2429.951 
2429.977 
2430.003 
2430.029 
2430.054 
2430.080 
2430.106 
2430.132 
2430.158 
2430.183 
2430.209 
2430.235 
2430.261 
2430.286 
2430.312 
2430.338 
2430.364 
2430.390 
2430.415 
2430.441 
2430.467 
2430.493 
2430.518 
2430.544 
2430.570 
2430.596 
2430.621 
2430.647 
2430.673 
2430.699 
2430.724 
2430.750 
2430.776 
2430.802 
2430.827 
2430.853 
2430.879 
2430.905 
2430.930 
2430.956 
2430.982 
2431.008 
2431.033 
2431.059 
2431.085 
2431.111 
2431.136 
2431.162 
2431.188 
2431.214 
2431.239 
2431.265 
2431.291 
2431.317 
2431.342 
2431.368 
2431.394 
2431.419 
2431.445 
2431.471 
2431.497 
2431.522 
2431.548 
2431.574 
2431.600 
2431.625 
2431.651 
2431.677 
2431.702 
2431.728 
2431.754 
2431.780 
2431.805 
2431.831 
2431.857 
2431.882 
2431.908 
2431.934 
2431.960 
2431.985 
2432.011 
2432.037 
2432.062 
2432.088 
2432.114 
2432.140 
2432.165 
2432.191 
2432.217 
2432.242 
2432.268 
2432.294 
2432.319 
2432.345 
2432.371 
2432.397 
2432.422 
2432.448 
2432.474 
2432.499 
2432.525 
2432.551 
2432.576 
2432.602 
2432.628 
2432.654 
2432.679 
2432.705 
2432.731 
2432.756 
2432.782 
2432.808 
2432.833 
2432.859 
2432.885 
2432.910 
2432.936 
2432.962 
2432.987 
2433.013 
2433.039 
2433.064 
2433.090 
2433.116 
2433.141 
2433.167 
2433.193 
2433.218 
2433.244 
2433.270 
2433.295 
2433.321 
2433.347 
2433.372 
2433.398 
2433.424 
2433.449 
2433.475 
2433.501 
2433.526 
2433.552 
2433.578 
2433.603 
2433.629 
2433.655 
2433.680 
2433.706 
2433.732 
2433.757 
2433.783 
2433.809 
2433.834 
2433.860 
2433.886 
2433.911 
2433.937 
2433.963 
2433.988 
2434.014 
2434.039 
2434.065 
2434.091 
2434.116 
2434.142 
2434.168 
2434.193 
2434.219 
2434.245 
2434.270 
2434.296 
2434.321 
2434.347 
2434.373 
2434.398 
2434.424 
2434.450 
2434.475 
2434.501 
2434.527 
2434.552 
2434.578 
2434.603 
2434.629 
2434.655 
2434.680 
2434.706 
2434.731 
2434.757 
2434.783 
2434.808 
2434.834 
2434.860 
2434.885 
2434.911 
2434.936 
2434.962 
2434.988 
2435.013 
2435.039 
2435.064 
2435.090 
2435.116 
2435.141 
2435.167 
2435.192 
2435.218 
2435.244 
2435.269 
2435.295 
2435.320 
2435.346 
2435.372 
2435.397 
2435.423 
2435.448 
2435.474 
2435.500 
2435.525 
2435.551 
2435.576 
2435.602 
2435.628 
2435.653 
2435.679 
2435.704 
2435.730 
2435.756 
2435.781 
2435.807 
2435.832 
2435.858 
2435.883 
2435.909 
2435.935 
2435.960 
2435.986 
2436.011 
2436.037 
2436.062 
2436.088 
2436.114 
2436.139 
2436.165 
2436.190 
2436.216 
2436.241 
2436.267 
2436.293 
2436.318 
2436.344 
2436.369 
2436.395 
2436.420 
2436.446 
2436.472 
2436.497 
2436.523 
2436.548 
2436.574 
2436.599 
2436.625 
2436.650 
2436.676 
2436.701 
2436.727 
2436.753 
2436.778 
2436.804 
2436.829 
2436.855 
2436.880 
2436.906 
2436.931 
2436.957 
2436.983 
2437.008 
2437.034 
2437.059 
2437.085 
2437.110 
2437.136 
2437.161 
2437.187 
2437.212 
2437.238 
2437.263 
2437.289 
2437.314 
2437.340 
2437.366 
2437.391 
2437.417 
2437.442 
2437.468 
2437.493 
2437.519 
2437.544 
2437.570 
2437.595 
2437.621 
2437.646 
2437.672 
2437.697 
2437.723 
2437.748 
2437.774 
2437.799 
2437.825 
2437.850 
2437.876 
2437.901 
2437.927 
2437.952 
2437.978 
2438.003 
2438.029 
2438.054 
2438.080 
2438.105 
2438.131 
2438.156 
2438.182 
2438.207 
2438.233 
2438.258 
2438.284 
2438.309 
2438.335 
2438.360 
2438.386 
2438.411 
2438.437 
2438.462 
2438.488 
2438.513 
2438.539 
2438.564 
2438.590 
2438.615 
2438.641 
2438.666 
2438.692 
2438.717 
2438.743 
2438.768 
2438.794 
2438.819 
2438.845 
2438.870 
2438.896 
2438.921 
2438.947 
2438.972 
2438.998 
2439.023 
2439.048 
2439.074 
2439.099 
2439.125 
2439.150 
2439.176 
2439.201 
2439.227 
2439.252 
2439.278 
2439.303 
2439.329 
2439.354 
2439.380 
2439.405 
2439.430 
2439.456 
2439.481 
2439.507 
2439.532 
2439.558 
2439.583 
2439.609 
2439.634 
2439.660 
2439.685 
2439.710 
2439.736 
2439.761 
2439.787 
2439.812 
2439.838 
2439.863 
2439.889 
2439.914 
2439.939 
2439.965 
2439.990 
2440.016 
2440.041 
2440.067 
2440.092 
2440.117 
2440.143 
2440.168 
2440.194 
2440.219 
2440.245 
2440.270 
2440.296 
2440.321 
2440.346 
2440.372 
2440.397 
2440.423 
2440.448 
2440.473 
2440.499 
2440.524 
2440.550 
2440.575 
2440.601 
2440.626 
2440.651 
2440.677 
2440.702 
2440.728 
2440.753 
2440.778 
2440.804 
2440.829 
2440.855 
2440.880 
2440.906 
2440.931 
2440.956 
2440.982 
2441.007 
2441.033 
2441.058 
2441.083 
2441.109 
2441.134 
2441.160 
2441.185 
2441.210 
2441.236 
2441.261 
2441.287 
2441.312 
2441.337 
2441.363 
2441.388 
2441.414 
2441.439 
2441.464 
2441.490 
2441.515 
2441.540 
2441.566 
2441.591 
2441.617 
2441.642 
2441.667 
2441.693 
2441.718 
2441.743 
2441.769 
2441.794 
2441.820 
2441.845 
2441.870 
2441.896 
2441.921 
2441.946 
2441.972 
2441.997 
2442.023 
2442.048 
2442.073 
2442.099 
2442.124 
2442.149 
2442.175 
2442.200 
2442.226 
2442.251 
2442.276 
2442.302 
2442.327 
2442.352 
2442.378 
2442.403 
2442.428 
2442.454 
2442.479 
2442.504 
2442.530 
2442.555 
2442.580 
2442.606 
2442.631 
2442.657 
2442.682 
2442.707 
2442.733 
2442.758 
2442.783 
2442.809 
2442.834 
2442.859 
2442.885 
2442.910 
2442.935 
2442.961 
2442.986 
2443.011 
2443.037 
2443.062 
2443.087 
2443.113 
2443.138 
2443.163 
2443.189 
2443.214 
2443.239 
2443.265 
2443.290 
2443.315 
2443.341 
2443.366 
2443.391 
2443.417 
2443.442 
2443.467 
2443.493 
2443.518 
2443.543 
2443.568 
2443.594 
2443.619 
2443.644 
2443.670 
2443.695 
2443.720 
2443.746 
2443.771 
2443.796 
2443.822 
2443.847 
2443.872 
2443.897 
2443.923 
2443.948 
2443.973 
2443.999 
2444.024 
2444.049 
2444.075 
2444.100 
2444.125 
2444.150 
2444.176 
2444.201 
2444.226 
2444.252 
2444.277 
2444.302 
2444.328 
2444.353 
2444.378 
2444.403 
2444.429 
2444.454 
2444.479 
2444.505 
2444.530 
2444.555 
2444.580 
2444.606 
2444.631 
2444.656 
2444.681 
2444.707 
2444.732 
2444.757 
2444.783 
2444.808 
2444.833 
2444.858 
2444.884 
2444.909 
2444.934 
2444.959 
2444.985 
2445.010 
2445.035 
2445.061 
2445.086 
2445.111 
2445.136 
2445.162 
2445.187 
2445.212 
2445.237 
2445.263 
2445.288 
2445.313 
2445.338 
2445.364 
2445.389 
2445.414 
2445.439 
2445.465 
2445.490 
2445.515 
2445.540 
2445.566 
2445.591 
2445.616 
2445.641 
2445.667 
2445.692 
2445.717 
2445.742 
2445.768 
2445.793 
2445.818 
2445.843 
2445.869 
2445.894 
2445.919 
2445.944 
2445.969 
2445.995 
2446.020 
2446.045 
2446.070 
2446.096 
2446.121 
2446.146 
2446.171 
2446.197 
2446.222 
2446.247 
2446.272 
2446.297 
2446.323 
2446.348 
2446.373 
2446.398 
2446.424 
2446.449 
2446.474 
2446.499 
2446.524 
2446.550 
2446.575 
2446.600 
2446.625 
2446.650 
2446.676 
2446.701 
2446.726 
2446.751 
2446.776 
2446.802 
2446.827 
2446.852 
2446.877 
2446.902 
2446.928 
2446.953 
2446.978 
2447.003 
2447.028 
2447.054 
2447.079 
2447.104 
2447.129 
2447.154 
2447.180 
2447.205 
2447.230 
2447.255 
2447.280 
2447.306 
2447.331 
2447.356 
2447.381 
2447.406 
2447.431 
2447.457 
2447.482 
2447.507 
2447.532 
2447.557 
2447.583 
2447.608 
2447.633 
2447.658 
2447.683 
2447.708 
2447.734 
2447.759 
2447.784 
2447.809 
2447.834 
2447.859 
2447.885 
2447.910 
2447.935 
2447.960 
2447.985 
2448.010 
2448.036 
2448.061 
2448.086 
2448.111 
2448.136 
2448.161 
2448.187 
2448.212 
2448.237 
2448.262 
2448.287 
2448.312 
2448.337 
2448.363 
2448.388 
2448.413 
2448.438 
2448.463 
2448.488 
2448.513 
2448.539 
2448.564 
2448.589 
2448.614 
2448.639 
2448.664 
2448.689 
2448.715 
2448.740 
2448.765 
2448.790 
2448.815 
2448.840 
2448.865 
2448.891 
2448.916 
2448.941 
2448.966 
2448.991 
2449.016 
2449.041 
2449.066 
2449.092 
2449.117 
2449.142 
2449.167 
2449.192 
2449.217 
2449.242 
2449.267 
2449.293 
2449.318 
2449.343 
2449.368 
2449.393 
2449.418 
2449.443 
2449.468 
2449.493 
2449.519 
2449.544 
2449.569 
2449.594 
2449.619 
2449.644 
2449.669 
2449.694 
2449.719 
2449.745 
2449.770 
2449.795 
2449.820 
2449.845 
2449.870 
2449.895 
2449.920 
2449.945 
2449.970 
2449.995 
2450.021 
2450.046 
2450.071 
2450.096 
2450.121 
2450.146 
2450.171 
2450.196 
2450.221 
2450.246 
2450.271 
2450.297 
2450.322 
2450.347 
2450.372 
2450.397 
2450.422 
2450.447 
2450.472 
2450.497 
2450.522 
2450.547 
2450.572 
2450.597 
2450.623 
2450.648 
2450.673 
2450.698 
2450.723 
2450.748 
2450.773 
2450.798 
2450.823 
2450.848 
2450.873 
2450.898 
2450.923 
2450.948 
2450.973 
2450.998 
2451.024 
2451.049 
2451.074 
2451.099 
2451.124 
2451.149 
2451.174 
2451.199 
2451.224 
2451.249 
2451.274 
2451.299 
2451.324 
2451.349 
2451.374 
2451.399 
2451.424 
2451.449 
2451.474 
2451.499 
2451.525 
2451.550 
2451.575 
2451.600 
2451.625 
2451.650 
2451.675 
2451.700 
2451.725 
2451.750 
2451.775 
2451.800 
2451.825 
2451.850 
2451.875 
2451.900 
2451.925 
2451.950 
2451.975 
2452.000 
2452.025 
2452.050 
2452.075 
2452.100 
2452.125 
2452.150 
2452.175 
2452.200 
2452.225 
2452.250 
2452.275 
2452.300 
2452.325 
2452.350 
2452.375 
2452.400 
2452.425 
2452.450 
2452.475 
2452.500 
2452.525 
2452.550 
2452.575 
2452.600 
2452.625 
2452.650 
2452.675 
2452.700 
2452.725 
2452.750 
2452.775 
2452.800 
2452.825 
2452.850 
2452.875 
2452.900 
2452.925 
2452.950 
2452.975 
2453.000 
2453.025 
2453.050 
2453.075 
2453.100 
2453.125 
2453.150 
2453.175 
2453.200 
2453.225 
2453.250 
2453.275 
2453.300 
2453.325 
2453.350 
2453.375 
2453.400 
2453.425 
2453.450 
2453.475 
2453.500 
2453.525 
2453.550 
2453.575 
2453.600 
2453.625 
2453.650 
2453.675 
2453.700 
2453.725 
2453.750 
2453.775 
2453.799 
2453.824 
2453.849 
2453.874 
2453.899 
2453.924 
2453.949 
2453.974 
2453.999 
2454.024 
2454.049 
2454.074 
2454.099 
2454.124 
2454.149 
2454.174 
2454.199 
2454.224 
2454.249 
2454.274 
2454.299 
2454.323 
2454.348 
2454.373 
2454.398 
2454.423 
2454.448 
2454.473 
2454.498 
2454.523 
2454.548 
2454.573 
2454.598 
2454.623 
2454.648 
2454.673 
2454.697 
2454.722 
2454.747 
2454.772 
2454.797 
2454.822 
2454.847 
2454.872 
2454.897 
2454.922 
2454.947 
2454.972 
2454.997 
2455.021 
2455.046 
2455.071 
2455.096 
2455.121 
2455.146 
2455.171 
2455.196 
2455.221 
2455.246 
2455.271 
2455.296 
2455.320 
2455.345 
2455.370 
2455.395 
2455.420 
2455.445 
2455.470 
2455.495 
2455.520 
2455.545 
2455.569 
2455.594 
2455.619 
2455.644 
2455.669 
2455.694 
2455.719 
2455.744 
2455.769 
2455.793 
2455.818 
2455.843 
2455.868 
2455.893 
2455.918 
2455.943 
2455.968 
2455.993 
2456.017 
2456.042 
2456.067 
2456.092 
2456.117 
2456.142 
2456.167 
2456.192 
2456.216 
2456.241 
2456.266 
2456.291 
2456.316 
2456.341 
2456.366 
2456.391 
2456.415 
2456.440 
2456.465 
2456.490 
2456.515 
2456.540 
2456.565 
2456.590 
2456.614 
2456.639 
2456.664 
2456.689 
2456.714 
2456.739 
2456.764 
2456.788 
2456.813 
2456.838 
2456.863 
2456.888 
2456.913 
2456.938 
2456.962 
2456.987 
2457.012 
2457.037 
2457.062 
2457.087 
2457.111 
2457.136 
2457.161 
2457.186 
2457.211 
2457.236 
2457.260 
2457.285 
2457.310 
2457.335 
2457.360 
2457.385 
2457.409 
2457.434 
2457.459 
2457.484 
2457.509 
2457.534 
2457.558 
2457.583 
2457.608 
2457.633 
2457.658 
2457.683 
2457.707 
2457.732 
2457.757 
2457.782 
2457.807 
2457.832 
2457.856 
2457.881 
2457.906 
2457.931 
2457.956 
2457.980 
2458.005 
2458.030 
2458.055 
2458.080 
2458.104 
2458.129 
2458.154 
2458.179 
2458.204 
2458.229 
2458.253 
2458.278 
2458.303 
2458.328 
2458.353 
2458.377 
2458.402 
2458.427 
2458.452 
2458.477 
2458.501 
2458.526 
2458.551 
2458.576 
2458.600 
2458.625 
2458.650 
2458.675 
2458.700 
2458.724 
2458.749 
2458.774 
2458.799 
2458.824 
2458.848 
2458.873 
2458.898 
2458.923 
2458.947 
2458.972 
2458.997 
2459.022 
2459.047 
2459.071 
2459.096 
2459.121 
2459.146 
2459.170 
2459.195 
2459.220 
2459.245 
2459.270 
2459.294 
2459.319 
2459.344 
2459.369 
2459.393 
2459.418 
2459.443 
2459.468 
2459.492 
2459.517 
2459.542 
2459.567 
2459.591 
2459.616 
2459.641 
2459.666 
2459.690 
2459.715 
2459.740 
2459.765 
2459.789 
2459.814 
2459.839 
2459.864 
2459.888 
2459.913 
2459.938 
2459.963 
2459.987 
2460.012 
2460.037 
2460.062 
2460.086 
2460.111 
2460.136 
2460.161 
2460.185 
2460.210 
2460.235 
2460.260 
2460.284 
2460.309 
2460.334 
2460.358 
2460.383 
2460.408 
2460.433 
2460.457 
2460.482 
2460.507 
2460.532 
2460.556 
2460.581 
2460.606 
2460.630 
2460.655 
2460.680 
2460.705 
2460.729 
2460.754 
2460.779 
2460.803 
2460.828 
2460.853 
2460.878 
2460.902 
2460.927 
2460.952 
2460.976 
2461.001 
2461.026 
2461.051 
2461.075 
2461.100 
2461.125 
2461.149 
2461.174 
2461.199 
2461.223 
2461.248 
2461.273 
2461.298 
2461.322 
2461.347 
2461.372 
2461.396 
2461.421 
2461.446 
2461.470 
2461.495 
2461.520 
2461.544 
2461.569 
2461.594 
2461.619 
2461.643 
2461.668 
2461.693 
2461.717 
2461.742 
2461.767 
2461.791 
2461.816 
2461.841 
2461.865 
2461.890 
2461.915 
2461.939 
2461.964 
2461.989 
2462.013 
2462.038 
2462.063 
2462.087 
2462.112 
2462.137 
2462.161 
2462.186 
2462.211 
2462.235 
2462.260 
2462.285 
2462.309 
2462.334 
2462.359 
2462.383 
2462.408 
2462.433 
2462.457 
2462.482 
2462.507 
2462.531 
2462.556 
2462.581 
2462.605 
2462.630 
2462.655 
2462.679 
2462.704 
2462.728 
2462.753 
2462.778 
2462.802 
2462.827 
2462.852 
2462.876 
2462.901 
2462.926 
2462.950 
2462.975 
2463.000 
2463.024 
2463.049 
2463.073 
2463.098 
2463.123 
2463.147 
2463.172 
2463.197 
2463.221 
2463.246 
2463.270 
2463.295 
2463.320 
2463.344 
2463.369 
2463.394 
2463.418 
2463.443 
2463.467 
2463.492 
2463.517 
2463.541 
2463.566 
2463.591 
2463.615 
2463.640 
2463.664 
2463.689 
2463.714 
2463.738 
2463.763 
2463.787 
2463.812 
2463.837 
2463.861 
2463.886 
2463.910 
2463.935 
2463.960 
2463.984 
2464.009 
2464.033 
2464.058 
2464.083 
2464.107 
2464.132 
2464.156 
2464.181 
2464.206 
2464.230 
2464.255 
2464.279 
2464.304 
2464.329 
2464.353 
2464.378 
2464.402 
2464.427 
2464.452 
2464.476 
2464.501 
2464.525 
2464.550 
2464.574 
2464.599 
2464.624 
2464.648 
2464.673 
2464.697 
2464.722 
2464.746 
2464.771 
2464.796 
2464.820 
2464.845 
2464.869 
2464.894 
2464.918 
2464.943 
2464.968 
2464.992 
2465.017 
2465.041 
2465.066 
2465.090 
2465.115 
2465.140 
2465.164 
2465.189 
2465.213 
2465.238 
2465.262 
2465.287 
2465.311 
2465.336 
2465.361 
2465.385 
2465.410 
2465.434 
2465.459 
2465.483 
2465.508 
2465.532 
2465.557 
2465.582 
2465.606 
2465.631 
2465.655 
2465.680 
2465.704 
2465.729 
2465.753 
2465.778 
2465.802 
2465.827 
2465.851 
2465.876 
2465.901 
2465.925 
2465.950 
2465.974 
2465.999 
2466.023 
2466.048 
2466.072 
2466.097 
2466.121 
2466.146 
2466.170 
2466.195 
2466.219 
2466.244 
2466.268 
2466.293 
2466.317 
2466.342 
2466.366 
2466.391 
2466.416 
2466.440 
2466.465 
2466.489 
2466.514 
2466.538 
2466.563 
2466.587 
2466.612 
2466.636 
2466.661 
2466.685 
2466.710 
2466.734 
2466.759 
2466.783 
2466.808 
2466.832 
2466.857 
2466.881 
2466.906 
2466.930 
2466.955 
2466.979 
2467.004 
2467.028 
2467.053 
2467.077 
2467.102 
2467.126 
2467.151 
2467.175 
2467.200 
2467.224 
2467.248 
2467.273 
2467.297 
2467.322 
2467.346 
2467.371 
2467.395 
2467.420 
2467.444 
2467.469 
2467.493 
2467.518 
2467.542 
2467.567 
2467.591 
2467.616 
2467.640 
2467.665 
2467.689 
2467.714 
2467.738 
2467.762 
2467.787 
2467.811 
2467.836 
2467.860 
2467.885 
2467.909 
2467.934 
2467.958 
2467.983 
2468.007 
2468.032 
2468.056 
2468.080 
2468.105 
2468.129 
2468.154 
2468.178 
2468.203 
2468.227 
2468.252 
2468.276 
2468.301 
2468.325 
2468.349 
2468.374 
2468.398 
2468.423 
2468.447 
2468.472 
2468.496 
2468.521 
2468.545 
2468.569 
2468.594 
2468.618 
2468.643 
2468.667 
2468.692 
2468.716 
2468.740 
2468.765 
2468.789 
2468.814 
2468.838 
2468.863 
2468.887 
2468.911 
2468.936 
2468.960 
2468.985 
2469.009 
2469.034 
2469.058 
2469.082 
2469.107 
2469.131 
2469.156 
2469.180 
2469.205 
2469.229 
2469.253 
2469.278 
2469.302 
2469.327 
2469.351 
2469.375 
2469.400 
2469.424 
2469.449 
2469.473 
2469.497 
2469.522 
2469.546 
2469.571 
2469.595 
2469.619 
2469.644 
2469.668 
2469.693 
2469.717 
2469.741 
2469.766 
2469.790 
2469.815 
2469.839 
2469.863 
2469.888 
2469.912 
2469.937 
2469.961 
2469.985 
2470.010 
2470.034 
2470.058 
2470.083 
2470.107 
2470.132 
2470.156 
2470.180 
2470.205 
2470.229 
2470.254 
2470.278 
2470.302 
2470.327 
2470.351 
2470.375 
2470.400 
2470.424 
2470.449 
2470.473 
2470.497 
2470.522 
2470.546 
2470.570 
2470.595 
2470.619 
2470.643 
2470.668 
2470.692 
2470.717 
2470.741 
2470.765 
2470.790 
2470.814 
2470.838 
2470.863 
2470.887 
2470.911 
2470.936 
2470.960 
2470.984 
2471.009 
2471.033 
2471.058 
2471.082 
2471.106 
2471.131 
2471.155 
2471.179 
2471.204 
2471.228 
2471.252 
2471.277 
2471.301 
2471.325 
2471.350 
2471.374 
2471.398 
2471.423 
2471.447 
2471.471 
2471.496 
2471.520 
2471.544 
2471.569 
2471.593 
2471.617 
2471.642 
2471.666 
2471.690 
2471.715 
2471.739 
2471.763 
2471.788 
2471.812 
2471.836 
2471.861 
2471.885 
2471.909 
2471.934 
2471.958 
2471.982 
2472.006 
2472.031 
2472.055 
2472.079 
2472.104 
2472.128 
2472.152 
2472.177 
2472.201 
2472.225 
2472.250 
2472.274 
2472.298 
2472.322 
2472.347 
2472.371 
2472.395 
2472.420 
2472.444 
2472.468 
2472.493 
2472.517 
2472.541 
2472.565 
2472.590 
2472.614 
2472.638 
2472.663 
2472.687 
2472.711 
2472.736 
2472.760 
2472.784 
2472.808 
2472.833 
2472.857 
2472.881 
2472.906 
2472.930 
2472.954 
2472.978 
2473.003 
2473.027 
2473.051 
2473.075 
2473.100 
2473.124 
2473.148 
2473.173 
2473.197 
2473.221 
2473.245 
2473.270 
2473.294 
2473.318 
2473.342 
2473.367 
2473.391 
2473.415 
2473.440 
2473.464 
2473.488 
2473.512 
2473.537 
2473.561 
2473.585 
2473.609 
2473.634 
2473.658 
2473.682 
2473.706 
2473.731 
2473.755 
2473.779 
2473.803 
2473.828 
2473.852 
2473.876 
2473.900 
2473.925 
2473.949 
2473.973 
2473.997 
2474.022 
2474.046 
2474.070 
2474.094 
2474.119 
2474.143 
2474.167 
2474.191 
2474.215 
2474.240 
2474.264 
2474.288 
2474.312 
2474.337 
2474.361 
2474.385 
2474.409 
2474.434 
2474.458 
2474.482 
2474.506 
2474.530 
2474.555 
2474.579 
2474.603 
2474.627 
2474.652 
2474.676 
2474.700 
2474.724 
2474.748 
2474.773 
2474.797 
2474.821 
2474.845 
2474.870 
2474.894 
2474.918 
2474.942 
2474.966 
2474.991 
2475.015 
2475.039 
2475.063 
2475.087 
2475.112 
2475.136 
2475.160 
2475.184 
2475.208 
2475.233 
2475.257 
2475.281 
2475.305 
2475.329 
2475.354 
2475.378 
2475.402 
2475.426 
2475.450 
2475.475 
2475.499 
2475.523 
2475.547 
2475.571 
2475.595 
2475.620 
2475.644 
2475.668 
2475.692 
2475.716 
2475.741 
2475.765 
2475.789 
2475.813 
2475.837 
2475.861 
2475.886 
2475.910 
2475.934 
2475.958 
2475.982 
2476.007 
2476.031 
2476.055 
2476.079 
2476.103 
2476.127 
2476.152 
2476.176 
2476.200 
2476.224 
2476.248 
2476.272 
2476.296 
2476.321 
2476.345 
2476.369 
2476.393 
2476.417 
2476.441 
2476.466 
2476.490 
2476.514 
2476.538 
2476.562 
2476.586 
2476.611 
2476.635 
2476.659 
2476.683 
2476.707 
2476.731 
2476.755 
2476.780 
2476.804 
2476.828 
2476.852 
2476.876 
2476.900 
2476.924 
2476.948 
2476.973 
2476.997 
2477.021 
2477.045 
2477.069 
2477.093 
2477.117 
2477.142 
2477.166 
2477.190 
2477.214 
2477.238 
2477.262 
2477.286 
2477.310 
2477.335 
2477.359 
2477.383 
2477.407 
2477.431 
2477.455 
2477.479 
2477.503 
2477.528 
2477.552 
2477.576 
2477.600 
2477.624 
2477.648 
2477.672 
2477.696 
2477.720 
2477.745 
2477.769 
2477.793 
2477.817 
2477.841 
2477.865 
2477.889 
2477.913 
2477.937 
2477.961 
2477.986 
2478.010 
2478.034 
2478.058 
2478.082 
2478.106 
2478.130 
2478.154 
2478.178 
2478.202 
2478.227 
2478.251 
2478.275 
2478.299 
2478.323 
2478.347 
2478.371 
2478.395 
2478.419 
2478.443 
2478.467 
2478.491 
2478.516 
2478.540 
2478.564 
2478.588 
2478.612 
2478.636 
2478.660 
2478.684 
2478.708 
2478.732 
2478.756 
2478.780 
2478.804 
2478.828 
2478.853 
2478.877 
2478.901 
2478.925 
2478.949 
2478.973 
2478.997 
2479.021 
2479.045 
2479.069 
2479.093 
2479.117 
2479.141 
2479.165 
2479.189 
2479.213 
2479.238 
2479.262 
2479.286 
2479.310 
2479.334 
2479.358 
2479.382 
2479.406 
2479.430 
2479.454 
2479.478 
2479.502 
2479.526 
2479.550 
2479.574 
2479.598 
2479.622 
2479.646 
2479.670 
2479.694 
2479.718 
2479.742 
2479.767 
2479.791 
2479.815 
2479.839 
2479.863 
2479.887 
2479.911 
2479.935 
2479.959 
2479.983 
2480.007 
2480.031 
2480.055 
2480.079 
2480.103 
2480.127 
2480.151 
2480.175 
2480.199 
2480.223 
2480.247 
2480.271 
2480.295 
2480.319 
2480.343 
2480.367 
2480.391 
2480.415 
2480.439 
2480.463 
2480.487 
2480.511 
2480.535 
2480.559 
2480.583 
2480.607 
2480.631 
2480.655 
2480.679 
2480.703 
2480.727 
2480.751 
2480.775 
2480.799 
2480.823 
2480.847 
2480.871 
2480.895 
2480.919 
2480.943 
2480.967 
2480.991 
2481.015 
2481.039 
2481.063 
2481.087 
2481.111 
2481.135 
2481.159 
2481.183 
2481.207 
2481.231 
2481.255 
2481.279 
2481.303 
2481.327 
2481.351 
2481.375 
2481.399 
2481.423 
2481.447 
2481.471 
2481.495 
2481.519 
2481.543 
2481.567 
2481.591 
2481.615 
2481.639 
2481.663 
2481.686 
2481.710 
2481.734 
2481.758 
2481.782 
2481.806 
2481.830 
2481.854 
2481.878 
2481.902 
2481.926 
2481.950 
2481.974 
2481.998 
2482.022 
2482.046 
2482.070 
2482.094 
2482.118 
2482.142 
2482.166 
2482.190 
2482.213 
2482.237 
2482.261 
2482.285 
2482.309 
2482.333 
2482.357 
2482.381 
2482.405 
2482.429 
2482.453 
2482.477 
2482.501 
2482.525 
2482.549 
2482.573 
2482.596 
2482.620 
2482.644 
2482.668 
2482.692 
2482.716 
2482.740 
2482.764 
2482.788 
2482.812 
2482.836 
2482.860 
2482.884 
2482.908 
2482.931 
2482.955 
2482.979 
2483.003 
2483.027 
2483.051 
2483.075 
2483.099 
2483.123 
2483.147 
2483.171 
2483.195 
2483.218 
2483.242 
2483.266 
2483.290 
2483.314 
2483.338 
2483.362 
2483.386 
2483.410 
2483.434 
2483.457 
2483.481 
2483.505 
2483.529 
2483.553 
2483.577 
2483.601 
2483.625 
2483.649 
2483.673 
2483.696 
2483.720 
2483.744 
2483.768 
2483.792 
2483.816 
2483.840 
2483.864 
2483.888 
2483.911 
2483.935 
2483.959 
2483.983 
2484.007 
2484.031 
2484.055 
2484.079 
2484.102 
2484.126 
2484.150 
2484.174 
2484.198 
2484.222 
2484.246 
2484.270 
2484.293 
2484.317 
2484.341 
2484.365 
2484.389 
2484.413 
2484.437 
2484.460 
2484.484 
2484.508 
2484.532 
2484.556 
2484.580 
2484.604 
2484.628 
2484.651 
2484.675 
2484.699 
2484.723 
2484.747 
2484.771 
2484.794 
2484.818 
2484.842 
2484.866 
2484.890 
2484.914 
2484.938 
2484.961 
2484.985 
2485.009 
2485.033 
2485.057 
2485.081 
2485.104 
2485.128 
2485.152 
2485.176 
2485.200 
2485.224 
2485.247 
2485.271 
2485.295 
2485.319 
2485.343 
2485.367 
2485.390 
2485.414 
2485.438 
2485.462 
2485.486 
2485.510 
2485.533 
2485.557 
2485.581 
2485.605 
2485.629 
2485.653 
2485.676 
2485.700 
2485.724 
2485.748 
2485.772 
2485.795 
2485.819 
2485.843 
2485.867 
2485.891 
2485.915 
2485.938 
2485.962 
2485.986 
2486.010 
2486.034 
2486.057 
2486.081 
2486.105 
2486.129 
2486.153 
2486.176 
2486.200 
2486.224 
2486.248 
2486.272 
2486.295 
2486.319 
2486.343 
2486.367 
2486.391 
2486.414 
2486.438 
2486.462 
2486.486 
2486.509 
2486.533 
2486.557 
2486.581 
2486.605 
2486.628 
2486.652 
2486.676 
2486.700 
2486.724 
2486.747 
2486.771 
2486.795 
2486.819 
2486.842 
2486.866 
2486.890 
2486.914 
2486.938 
2486.961 
2486.985 
2487.009 
2487.033 
2487.056 
2487.080 
2487.104 
2487.128 
2487.151 
2487.175 
2487.199 
2487.223 
2487.247 
2487.270 
2487.294 
2487.318 
2487.342 
2487.365 
2487.389 
2487.413 
2487.437 
2487.460 
2487.484 
2487.508 
2487.532 
2487.555 
2487.579 
2487.603 
2487.627 
2487.650 
2487.674 
2487.698 
2487.722 
2487.745 
2487.769 
2487.793 
2487.817 
2487.840 
2487.864 
2487.888 
2487.911 
2487.935 
2487.959 
2487.983 
2488.006 
2488.030 
2488.054 
2488.078 
2488.101 
2488.125 
2488.149 
2488.173 
2488.196 
2488.220 
2488.244 
2488.267 
2488.291 
2488.315 
2488.339 
2488.362 
2488.386 
2488.410 
2488.433 
2488.457 
2488.481 
2488.505 
2488.528 
2488.552 
2488.576 
2488.599 
2488.623 
2488.647 
2488.671 
2488.694 
2488.718 
2488.742 
2488.765 
2488.789 
2488.813 
2488.837 
2488.860 
2488.884 
2488.908 
2488.931 
2488.955 
2488.979 
2489.002 
2489.026 
2489.050 
2489.074 
2489.097 
2489.121 
2489.145 
2489.168 
2489.192 
2489.216 
2489.239 
2489.263 
2489.287 
2489.310 
2489.334 
2489.358 
2489.381 
2489.405 
2489.429 
2489.453 
2489.476 
2489.500 
2489.524 
2489.547 
2489.571 
2489.595 
2489.618 
2489.642 
2489.666 
2489.689 
2489.713 
2489.737 
2489.760 
2489.784 
2489.808 
2489.831 
2489.855 
2489.879 
2489.902 
2489.926 
2489.950 
2489.973 
2489.997 
2490.021 
2490.044 
2490.068 
2490.092 
2490.115 
2490.139 
2490.163 
2490.186 
2490.210 
2490.233 
2490.257 
2490.281 
2490.304 
2490.328 
2490.352 
2490.375 
2490.399 
2490.423 
2490.446 
2490.470 
2490.494 
2490.517 
2490.541 
2490.565 
2490.588 
2490.612 
2490.635 
2490.659 
2490.683 
2490.706 
2490.730 
2490.754 
2490.777 
2490.801 
2490.824 
2490.848 
2490.872 
2490.895 
2490.919 
2490.943 
2490.966 
2490.990 
2491.014 
2491.037 
2491.061 
2491.084 
2491.108 
2491.132 
2491.155 
2491.179 
2491.202 
2491.226 
2491.250 
2491.273 
2491.297 
2491.321 
2491.344 
2491.368 
2491.391 
2491.415 
2491.439 
2491.462 
2491.486 
2491.509 
2491.533 
2491.557 
2491.580 
2491.604 
2491.627 
2491.651 
2491.675 
2491.698 
2491.722 
2491.745 
2491.769 
2491.793 
2491.816 
2491.840 
2491.863 
2491.887 
2491.911 
2491.934 
2491.958 
2491.981 
2492.005 
2492.028 
2492.052 
2492.076 
2492.099 
2492.123 
2492.146 
2492.170 
2492.194 
2492.217 
2492.241 
2492.264 
2492.288 
2492.311 
2492.335 
2492.359 
2492.382 
2492.406 
2492.429 
2492.453 
2492.476 
2492.500 
2492.524 
2492.547 
2492.571 
2492.594 
2492.618 
2492.641 
2492.665 
2492.688 
2492.712 
2492.736 
2492.759 
2492.783 
2492.806 
2492.830 
2492.853 
2492.877 
2492.900 
2492.924 
2492.948 
2492.971 
2492.995 
2493.018 
2493.042 
2493.065 
2493.089 
2493.112 
2493.136 
2493.160 
2493.183 
2493.207 
2493.230 
2493.254 
2493.277 
2493.301 
2493.324 
2493.348 
2493.371 
2493.395 
2493.418 
2493.442 
2493.465 
2493.489 
2493.513 
2493.536 
2493.560 
2493.583 
2493.607 
2493.630 
2493.654 
2493.677 
2493.701 
2493.724 
2493.748 
2493.771 
2493.795 
2493.818 
2493.842 
2493.865 
2493.889 
2493.912 
2493.936 
2493.959 
2493.983 
2494.006 
2494.030 
2494.054 
2494.077 
2494.101 
2494.124 
2494.148 
2494.171 
2494.195 
2494.218 
2494.242 
2494.265 
2494.289 
2494.312 
2494.336 
2494.359 
2494.383 
2494.406 
2494.430 
2494.453 
2494.477 
2494.500 
2494.524 
2494.547 
2494.571 
2494.594 
2494.617 
2494.641 
2494.664 
2494.688 
2494.711 
2494.735 
2494.758 
2494.782 
2494.805 
2494.829 
2494.852 
2494.876 
2494.899 
2494.923 
2494.946 
2494.970 
2494.993 
2495.017 
2495.040 
2495.064 
2495.087 
2495.111 
2495.134 
2495.158 
2495.181 
2495.204 
2495.228 
2495.251 
2495.275 
2495.298 
2495.322 
2495.345 
2495.369 
2495.392 
2495.416 
2495.439 
2495.463 
2495.486 
2495.509 
2495.533 
2495.556 
2495.580 
2495.603 
2495.627 
2495.650 
2495.674 
2495.697 
2495.721 
2495.744 
2495.767 
2495.791 
2495.814 
2495.838 
2495.861 
2495.885 
2495.908 
2495.931 
2495.955 
2495.978 
2496.002 
2496.025 
2496.049 
2496.072 
2496.096 
2496.119 
2496.142 
2496.166 
2496.189 
2496.213 
2496.236 
2496.260 
2496.283 
2496.306 
2496.330 
2496.353 
2496.377 
2496.400 
2496.424 
2496.447 
2496.470 
2496.494 
2496.517 
2496.541 
2496.564 
2496.587 
2496.611 
2496.634 
2496.658 
2496.681 
2496.705 
2496.728 
2496.751 
2496.775 
2496.798 
2496.822 
2496.845 
2496.868 
2496.892 
2496.915 
2496.939 
2496.962 
2496.985 
