# Wavelength table for hrs,g200m
1600.000 
1600.081 
1600.162 
1600.243 
1600.324 
1600.405 
1600.486 
1600.567 
1600.648 
1600.729 
1600.810 
1600.891 
1600.972 
1601.053 
1601.134 
1601.215 
1601.296 
1601.377 
1601.458 
1601.539 
1601.620 
1601.701 
1601.782 
1601.863 
1601.944 
1602.025 
1602.106 
1602.187 
1602.268 
1602.349 
1602.430 
1602.511 
1602.592 
1602.673 
1602.754 
1602.835 
1602.916 
1602.997 
1603.078 
1603.159 
1603.240 
1603.321 
1603.401 
1603.482 
1603.563 
1603.644 
1603.725 
1603.806 
1603.887 
1603.968 
1604.049 
1604.130 
1604.211 
1604.292 
1604.373 
1604.454 
1604.535 
1604.616 
1604.697 
1604.778 
1604.859 
1604.940 
1605.021 
1605.102 
1605.183 
1605.264 
1605.345 
1605.426 
1605.507 
1605.588 
1605.669 
1605.750 
1605.830 
1605.911 
1605.992 
1606.073 
1606.154 
1606.235 
1606.316 
1606.397 
1606.478 
1606.559 
1606.640 
1606.721 
1606.802 
1606.883 
1606.964 
1607.045 
1607.126 
1607.207 
1607.288 
1607.369 
1607.450 
1607.530 
1607.611 
1607.692 
1607.773 
1607.854 
1607.935 
1608.016 
1608.097 
1608.178 
1608.259 
1608.340 
1608.421 
1608.502 
1608.583 
1608.664 
1608.745 
1608.826 
1608.906 
1608.987 
1609.068 
1609.149 
1609.230 
1609.311 
1609.392 
1609.473 
1609.554 
1609.635 
1609.716 
1609.797 
1609.878 
1609.959 
1610.040 
1610.120 
1610.201 
1610.282 
1610.363 
1610.444 
1610.525 
1610.606 
1610.687 
1610.768 
1610.849 
1610.930 
1611.011 
1611.092 
1611.172 
1611.253 
1611.334 
1611.415 
1611.496 
1611.577 
1611.658 
1611.739 
1611.820 
1611.901 
1611.982 
1612.063 
1612.143 
1612.224 
1612.305 
1612.386 
1612.467 
1612.548 
1612.629 
1612.710 
1612.791 
1612.872 
1612.953 
1613.033 
1613.114 
1613.195 
1613.276 
1613.357 
1613.438 
1613.519 
1613.600 
1613.681 
1613.762 
1613.842 
1613.923 
1614.004 
1614.085 
1614.166 
1614.247 
1614.328 
1614.409 
1614.490 
1614.571 
1614.651 
1614.732 
1614.813 
1614.894 
1614.975 
1615.056 
1615.137 
1615.218 
1615.299 
1615.379 
1615.460 
1615.541 
1615.622 
1615.703 
1615.784 
1615.865 
1615.946 
1616.027 
1616.107 
1616.188 
1616.269 
1616.350 
1616.431 
1616.512 
1616.593 
1616.674 
1616.754 
1616.835 
1616.916 
1616.997 
1617.078 
1617.159 
1617.240 
1617.321 
1617.401 
1617.482 
1617.563 
1617.644 
1617.725 
1617.806 
1617.887 
1617.968 
1618.048 
1618.129 
1618.210 
1618.291 
1618.372 
1618.453 
1618.534 
1618.615 
1618.695 
1618.776 
1618.857 
1618.938 
1619.019 
1619.100 
1619.181 
1619.261 
1619.342 
1619.423 
1619.504 
1619.585 
1619.666 
1619.747 
1619.827 
1619.908 
1619.989 
1620.070 
1620.151 
1620.232 
1620.313 
1620.393 
1620.474 
1620.555 
1620.636 
1620.717 
1620.798 
1620.879 
1620.959 
1621.040 
1621.121 
1621.202 
1621.283 
1621.364 
1621.444 
1621.525 
1621.606 
1621.687 
1621.768 
1621.849 
1621.930 
1622.010 
1622.091 
1622.172 
1622.253 
1622.334 
1622.415 
1622.495 
1622.576 
1622.657 
1622.738 
1622.819 
1622.900 
1622.980 
1623.061 
1623.142 
1623.223 
1623.304 
1623.385 
1623.465 
1623.546 
1623.627 
1623.708 
1623.789 
1623.870 
1623.950 
1624.031 
1624.112 
1624.193 
1624.274 
1624.354 
1624.435 
1624.516 
1624.597 
1624.678 
1624.759 
1624.839 
1624.920 
1625.001 
1625.082 
1625.163 
1625.244 
1625.324 
1625.405 
1625.486 
1625.567 
1625.648 
1625.728 
1625.809 
1625.890 
1625.971 
1626.052 
1626.132 
1626.213 
1626.294 
1626.375 
1626.456 
1626.537 
1626.617 
1626.698 
1626.779 
1626.860 
1626.941 
1627.021 
1627.102 
1627.183 
1627.264 
1627.345 
1627.425 
1627.506 
1627.587 
1627.668 
1627.749 
1627.829 
1627.910 
1627.991 
1628.072 
1628.153 
1628.233 
1628.314 
1628.395 
1628.476 
1628.557 
1628.637 
1628.718 
1628.799 
1628.880 
1628.961 
1629.041 
1629.122 
1629.203 
1629.284 
1629.364 
1629.445 
1629.526 
1629.607 
1629.688 
1629.768 
1629.849 
1629.930 
1630.011 
1630.092 
1630.172 
1630.253 
1630.334 
1630.415 
1630.495 
1630.576 
1630.657 
1630.738 
1630.819 
1630.899 
1630.980 
1631.061 
1631.142 
1631.222 
1631.303 
1631.384 
1631.465 
1631.546 
1631.626 
1631.707 
1631.788 
1631.869 
1631.949 
1632.030 
1632.111 
1632.192 
1632.272 
1632.353 
1632.434 
1632.515 
1632.595 
1632.676 
1632.757 
1632.838 
1632.919 
1632.999 
1633.080 
1633.161 
1633.242 
1633.322 
1633.403 
1633.484 
1633.565 
1633.645 
1633.726 
1633.807 
1633.888 
1633.968 
1634.049 
1634.130 
1634.211 
1634.291 
1634.372 
1634.453 
1634.534 
1634.614 
1634.695 
1634.776 
1634.857 
1634.937 
1635.018 
1635.099 
1635.180 
1635.260 
1635.341 
1635.422 
1635.503 
1635.583 
1635.664 
1635.745 
1635.826 
1635.906 
1635.987 
1636.068 
1636.149 
1636.229 
1636.310 
1636.391 
1636.472 
1636.552 
1636.633 
1636.714 
1636.794 
1636.875 
1636.956 
1637.037 
1637.117 
1637.198 
1637.279 
1637.360 
1637.440 
1637.521 
1637.602 
1637.682 
1637.763 
1637.844 
1637.925 
1638.005 
1638.086 
1638.167 
1638.248 
1638.328 
1638.409 
1638.490 
1638.570 
1638.651 
1638.732 
1638.813 
1638.893 
1638.974 
1639.055 
1639.135 
1639.216 
1639.297 
1639.378 
1639.458 
1639.539 
1639.620 
1639.700 
1639.781 
1639.862 
1639.943 
1640.023 
1640.104 
1640.185 
1640.265 
1640.346 
1640.427 
1640.508 
1640.588 
1640.669 
1640.750 
1640.830 
1640.911 
1640.992 
1641.073 
1641.153 
1641.234 
1641.315 
1641.395 
1641.476 
1641.557 
1641.637 
1641.718 
1641.799 
1641.880 
1641.960 
1642.041 
1642.122 
1642.202 
1642.283 
1642.364 
1642.444 
1642.525 
1642.606 
1642.686 
1642.767 
1642.848 
1642.929 
1643.009 
1643.090 
1643.171 
1643.251 
1643.332 
1643.413 
1643.493 
1643.574 
1643.655 
1643.735 
1643.816 
1643.897 
1643.977 
1644.058 
1644.139 
1644.219 
1644.300 
1644.381 
1644.462 
1644.542 
1644.623 
1644.704 
1644.784 
1644.865 
1644.946 
1645.026 
1645.107 
1645.188 
1645.268 
1645.349 
1645.430 
1645.510 
1645.591 
1645.672 
1645.752 
1645.833 
1645.914 
1645.994 
1646.075 
1646.156 
1646.236 
1646.317 
1646.398 
1646.478 
1646.559 
1646.640 
1646.720 
1646.801 
1646.882 
1646.962 
1647.043 
1647.124 
1647.204 
1647.285 
1647.366 
1647.446 
1647.527 
1647.608 
1647.688 
1647.769 
1647.849 
1647.930 
1648.011 
1648.091 
1648.172 
1648.253 
1648.333 
1648.414 
1648.495 
1648.575 
1648.656 
1648.737 
1648.817 
1648.898 
1648.979 
1649.059 
1649.140 
1649.221 
1649.301 
1649.382 
1649.462 
1649.543 
1649.624 
1649.704 
1649.785 
1649.866 
1649.946 
1650.027 
1650.108 
1650.188 
1650.269 
1650.349 
1650.430 
1650.511 
1650.591 
1650.672 
1650.753 
1650.833 
1650.914 
1650.995 
1651.075 
1651.156 
1651.236 
1651.317 
1651.398 
1651.478 
1651.559 
1651.640 
1651.720 
1651.801 
1651.881 
1651.962 
1652.043 
1652.123 
1652.204 
1652.285 
1652.365 
1652.446 
1652.526 
1652.607 
1652.688 
1652.768 
1652.849 
1652.930 
1653.010 
1653.091 
1653.171 
1653.252 
1653.333 
1653.413 
1653.494 
1653.574 
1653.655 
1653.736 
1653.816 
1653.897 
1653.977 
1654.058 
1654.139 
1654.219 
1654.300 
1654.381 
1654.461 
1654.542 
1654.622 
1654.703 
1654.784 
1654.864 
1654.945 
1655.025 
1655.106 
1655.187 
1655.267 
1655.348 
1655.428 
1655.509 
1655.590 
1655.670 
1655.751 
1655.831 
1655.912 
1655.993 
1656.073 
1656.154 
1656.234 
1656.315 
1656.395 
1656.476 
1656.557 
1656.637 
1656.718 
1656.798 
1656.879 
1656.960 
1657.040 
1657.121 
1657.201 
1657.282 
1657.363 
1657.443 
1657.524 
1657.604 
1657.685 
1657.765 
1657.846 
1657.927 
1658.007 
1658.088 
1658.168 
1658.249 
1658.330 
1658.410 
1658.491 
1658.571 
1658.652 
1658.732 
1658.813 
1658.894 
1658.974 
1659.055 
1659.135 
1659.216 
1659.296 
1659.377 
1659.458 
1659.538 
1659.619 
1659.699 
1659.780 
1659.860 
1659.941 
1660.022 
1660.102 
1660.183 
1660.263 
1660.344 
1660.424 
1660.505 
1660.585 
1660.666 
1660.747 
1660.827 
1660.908 
1660.988 
1661.069 
1661.149 
1661.230 
1661.310 
1661.391 
1661.472 
1661.552 
1661.633 
1661.713 
1661.794 
1661.874 
1661.955 
1662.035 
1662.116 
1662.197 
1662.277 
1662.358 
1662.438 
1662.519 
1662.599 
1662.680 
1662.760 
1662.841 
1662.921 
1663.002 
1663.083 
1663.163 
1663.244 
1663.324 
1663.405 
1663.485 
1663.566 
1663.646 
1663.727 
1663.807 
1663.888 
1663.969 
1664.049 
1664.130 
1664.210 
1664.291 
1664.371 
1664.452 
1664.532 
1664.613 
1664.693 
1664.774 
1664.854 
1664.935 
1665.015 
1665.096 
1665.177 
1665.257 
1665.338 
1665.418 
1665.499 
1665.579 
1665.660 
1665.740 
1665.821 
1665.901 
1665.982 
1666.062 
1666.143 
1666.223 
1666.304 
1666.384 
1666.465 
1666.545 
1666.626 
1666.706 
1666.787 
1666.867 
1666.948 
1667.028 
1667.109 
1667.190 
1667.270 
1667.351 
1667.431 
1667.512 
1667.592 
1667.673 
1667.753 
1667.834 
1667.914 
1667.995 
1668.075 
1668.156 
1668.236 
1668.317 
1668.397 
1668.478 
1668.558 
1668.639 
1668.719 
1668.800 
1668.880 
1668.961 
1669.041 
1669.122 
1669.202 
1669.283 
1669.363 
1669.444 
1669.524 
1669.605 
1669.685 
1669.766 
1669.846 
1669.927 
1670.007 
1670.088 
1670.168 
1670.249 
1670.329 
1670.410 
1670.490 
1670.571 
1670.651 
1670.732 
1670.812 
1670.893 
1670.973 
1671.053 
1671.134 
1671.214 
1671.295 
1671.375 
1671.456 
1671.536 
1671.617 
1671.697 
1671.778 
1671.858 
1671.939 
1672.019 
1672.100 
1672.180 
1672.261 
1672.341 
1672.422 
1672.502 
1672.583 
1672.663 
1672.744 
1672.824 
1672.904 
1672.985 
1673.065 
1673.146 
1673.226 
1673.307 
1673.387 
1673.468 
1673.548 
1673.629 
1673.709 
1673.790 
1673.870 
1673.951 
1674.031 
1674.112 
1674.192 
1674.272 
1674.353 
1674.433 
1674.514 
1674.594 
1674.675 
1674.755 
1674.836 
1674.916 
1674.997 
1675.077 
1675.157 
1675.238 
1675.318 
1675.399 
1675.479 
1675.560 
1675.640 
1675.721 
1675.801 
1675.882 
1675.962 
1676.042 
1676.123 
1676.203 
1676.284 
1676.364 
1676.445 
1676.525 
1676.606 
1676.686 
1676.766 
1676.847 
1676.927 
1677.008 
1677.088 
1677.169 
1677.249 
1677.330 
1677.410 
1677.490 
1677.571 
1677.651 
1677.732 
1677.812 
1677.893 
1677.973 
1678.053 
1678.134 
1678.214 
1678.295 
1678.375 
1678.456 
1678.536 
1678.617 
1678.697 
1678.777 
1678.858 
1678.938 
1679.019 
1679.099 
1679.180 
1679.260 
1679.340 
1679.421 
1679.501 
1679.582 
1679.662 
1679.742 
1679.823 
1679.903 
1679.984 
1680.064 
1680.145 
1680.225 
1680.305 
1680.386 
1680.466 
1680.547 
1680.627 
1680.707 
1680.788 
1680.868 
1680.949 
1681.029 
1681.110 
1681.190 
1681.270 
1681.351 
1681.431 
1681.512 
1681.592 
1681.672 
1681.753 
1681.833 
1681.914 
1681.994 
1682.074 
1682.155 
1682.235 
1682.316 
1682.396 
1682.476 
1682.557 
1682.637 
1682.718 
1682.798 
1682.878 
1682.959 
1683.039 
1683.120 
1683.200 
1683.280 
1683.361 
1683.441 
1683.522 
1683.602 
1683.682 
1683.763 
1683.843 
1683.924 
1684.004 
1684.084 
1684.165 
1684.245 
1684.326 
1684.406 
1684.486 
1684.567 
1684.647 
1684.728 
1684.808 
1684.888 
1684.969 
1685.049 
1685.129 
1685.210 
1685.290 
1685.371 
1685.451 
1685.531 
1685.612 
1685.692 
1685.772 
1685.853 
1685.933 
1686.014 
1686.094 
1686.174 
1686.255 
1686.335 
1686.415 
1686.496 
1686.576 
1686.657 
1686.737 
1686.817 
1686.898 
1686.978 
1687.058 
1687.139 
1687.219 
1687.300 
1687.380 
1687.460 
1687.541 
1687.621 
1687.701 
1687.782 
1687.862 
1687.942 
1688.023 
1688.103 
1688.184 
1688.264 
1688.344 
1688.425 
1688.505 
1688.585 
1688.666 
1688.746 
1688.826 
1688.907 
1688.987 
1689.067 
1689.148 
1689.228 
1689.309 
1689.389 
1689.469 
1689.550 
1689.630 
1689.710 
1689.791 
1689.871 
1689.951 
1690.032 
1690.112 
1690.192 
1690.273 
1690.353 
1690.433 
1690.514 
1690.594 
1690.674 
1690.755 
1690.835 
1690.915 
1690.996 
1691.076 
1691.157 
1691.237 
1691.317 
1691.398 
1691.478 
1691.558 
1691.639 
1691.719 
1691.799 
1691.880 
1691.960 
1692.040 
1692.121 
1692.201 
1692.281 
1692.362 
1692.442 
1692.522 
1692.603 
1692.683 
1692.763 
1692.843 
1692.924 
1693.004 
1693.084 
1693.165 
1693.245 
1693.325 
1693.406 
1693.486 
1693.566 
1693.647 
1693.727 
1693.807 
1693.888 
1693.968 
1694.048 
1694.129 
1694.209 
1694.289 
1694.370 
1694.450 
1694.530 
1694.611 
1694.691 
1694.771 
1694.851 
1694.932 
1695.012 
1695.092 
1695.173 
1695.253 
1695.333 
1695.414 
1695.494 
1695.574 
1695.655 
1695.735 
1695.815 
1695.895 
1695.976 
1696.056 
1696.136 
1696.217 
1696.297 
1696.377 
1696.458 
1696.538 
1696.618 
1696.699 
1696.779 
1696.859 
1696.939 
1697.020 
1697.100 
1697.180 
1697.261 
1697.341 
1697.421 
1697.501 
1697.582 
1697.662 
1697.742 
1697.823 
1697.903 
1697.983 
1698.063 
1698.144 
1698.224 
1698.304 
1698.385 
1698.465 
1698.545 
1698.625 
1698.706 
1698.786 
1698.866 
1698.947 
1699.027 
1699.107 
1699.187 
1699.268 
1699.348 
1699.428 
1699.509 
1699.589 
1699.669 
1699.749 
1699.830 
1699.910 
1699.990 
1700.071 
1700.151 
1700.231 
1700.311 
1700.392 
1700.472 
1700.552 
1700.632 
1700.713 
1700.793 
1700.873 
1700.954 
1701.034 
1701.114 
1701.194 
1701.275 
1701.355 
1701.435 
1701.515 
1701.596 
1701.676 
1701.756 
1701.836 
1701.917 
1701.997 
1702.077 
1702.157 
1702.238 
1702.318 
1702.398 
1702.478 
1702.559 
1702.639 
1702.719 
1702.800 
1702.880 
1702.960 
1703.040 
1703.121 
1703.201 
1703.281 
1703.361 
1703.442 
1703.522 
1703.602 
1703.682 
1703.763 
1703.843 
1703.923 
1704.003 
1704.083 
1704.164 
1704.244 
1704.324 
1704.404 
1704.485 
1704.565 
1704.645 
1704.725 
1704.806 
1704.886 
1704.966 
1705.046 
1705.127 
1705.207 
1705.287 
1705.367 
1705.448 
1705.528 
1705.608 
1705.688 
1705.769 
1705.849 
1705.929 
1706.009 
1706.089 
1706.170 
1706.250 
1706.330 
1706.410 
1706.491 
1706.571 
1706.651 
1706.731 
1706.811 
1706.892 
1706.972 
1707.052 
1707.132 
1707.213 
1707.293 
1707.373 
1707.453 
1707.533 
1707.614 
1707.694 
1707.774 
1707.854 
1707.935 
1708.015 
1708.095 
1708.175 
1708.255 
1708.336 
1708.416 
1708.496 
1708.576 
1708.656 
1708.737 
1708.817 
1708.897 
1708.977 
1709.058 
1709.138 
1709.218 
1709.298 
1709.378 
1709.459 
1709.539 
1709.619 
1709.699 
1709.779 
1709.860 
1709.940 
1710.020 
1710.100 
1710.180 
1710.261 
1710.341 
1710.421 
1710.501 
1710.581 
1710.662 
1710.742 
1710.822 
1710.902 
1710.982 
1711.063 
1711.143 
1711.223 
1711.303 
1711.383 
1711.464 
1711.544 
1711.624 
1711.704 
1711.784 
1711.864 
1711.945 
1712.025 
1712.105 
1712.185 
1712.265 
1712.346 
1712.426 
1712.506 
1712.586 
1712.666 
1712.747 
1712.827 
1712.907 
1712.987 
1713.067 
1713.147 
1713.228 
1713.308 
1713.388 
1713.468 
1713.548 
1713.628 
1713.709 
1713.789 
1713.869 
1713.949 
1714.029 
1714.110 
1714.190 
1714.270 
1714.350 
1714.430 
1714.510 
1714.591 
1714.671 
1714.751 
1714.831 
1714.911 
1714.991 
1715.072 
1715.152 
1715.232 
1715.312 
1715.392 
1715.472 
1715.553 
1715.633 
1715.713 
1715.793 
1715.873 
1715.953 
1716.033 
1716.114 
1716.194 
1716.274 
1716.354 
1716.434 
1716.514 
1716.595 
1716.675 
1716.755 
1716.835 
1716.915 
1716.995 
1717.075 
1717.156 
1717.236 
1717.316 
1717.396 
1717.476 
1717.556 
1717.637 
1717.717 
1717.797 
1717.877 
1717.957 
1718.037 
1718.117 
1718.198 
1718.278 
1718.358 
1718.438 
1718.518 
1718.598 
1718.678 
1718.758 
1718.839 
1718.919 
1718.999 
1719.079 
1719.159 
1719.239 
1719.319 
1719.400 
1719.480 
1719.560 
1719.640 
1719.720 
1719.800 
1719.880 
1719.960 
1720.041 
1720.121 
1720.201 
1720.281 
1720.361 
1720.441 
1720.521 
1720.602 
1720.682 
1720.762 
1720.842 
1720.922 
1721.002 
1721.082 
1721.162 
1721.242 
1721.323 
1721.403 
1721.483 
1721.563 
1721.643 
1721.723 
1721.803 
1721.883 
1721.964 
1722.044 
1722.124 
1722.204 
1722.284 
1722.364 
1722.444 
1722.524 
1722.604 
1722.685 
1722.765 
1722.845 
1722.925 
1723.005 
1723.085 
1723.165 
1723.245 
1723.325 
1723.405 
1723.486 
1723.566 
1723.646 
1723.726 
1723.806 
1723.886 
1723.966 
1724.046 
1724.126 
1724.207 
1724.287 
1724.367 
1724.447 
1724.527 
1724.607 
1724.687 
1724.767 
1724.847 
1724.927 
1725.007 
1725.088 
1725.168 
1725.248 
1725.328 
1725.408 
1725.488 
1725.568 
1725.648 
1725.728 
1725.808 
1725.888 
1725.969 
1726.049 
1726.129 
1726.209 
1726.289 
1726.369 
1726.449 
1726.529 
1726.609 
1726.689 
1726.769 
1726.849 
1726.929 
1727.010 
1727.090 
1727.170 
1727.250 
1727.330 
1727.410 
1727.490 
1727.570 
1727.650 
1727.730 
1727.810 
1727.890 
1727.970 
1728.051 
1728.131 
1728.211 
1728.291 
1728.371 
1728.451 
1728.531 
1728.611 
1728.691 
1728.771 
1728.851 
1728.931 
1729.011 
1729.091 
1729.171 
1729.252 
1729.332 
1729.412 
1729.492 
1729.572 
1729.652 
1729.732 
1729.812 
1729.892 
1729.972 
1730.052 
1730.132 
1730.212 
1730.292 
1730.372 
1730.452 
1730.532 
1730.612 
1730.693 
1730.773 
1730.853 
1730.933 
1731.013 
1731.093 
1731.173 
1731.253 
1731.333 
1731.413 
1731.493 
1731.573 
1731.653 
1731.733 
1731.813 
1731.893 
1731.973 
1732.053 
1732.133 
1732.213 
1732.293 
1732.373 
1732.453 
1732.534 
1732.614 
1732.694 
1732.774 
1732.854 
1732.934 
1733.014 
1733.094 
1733.174 
1733.254 
1733.334 
1733.414 
1733.494 
1733.574 
1733.654 
1733.734 
1733.814 
1733.894 
1733.974 
1734.054 
1734.134 
1734.214 
1734.294 
1734.374 
1734.454 
1734.534 
1734.614 
1734.694 
1734.774 
1734.854 
1734.934 
1735.014 
1735.094 
1735.174 
1735.254 
1735.334 
1735.414 
1735.494 
1735.575 
1735.655 
1735.735 
1735.815 
1735.895 
1735.975 
1736.055 
1736.135 
1736.215 
1736.295 
1736.375 
1736.455 
1736.535 
1736.615 
1736.695 
1736.775 
1736.855 
1736.935 
1737.015 
1737.095 
1737.175 
1737.255 
1737.335 
1737.415 
1737.495 
1737.575 
1737.655 
1737.735 
1737.815 
1737.895 
1737.975 
1738.055 
1738.135 
1738.215 
1738.295 
1738.375 
1738.455 
1738.535 
1738.615 
1738.695 
1738.775 
1738.855 
1738.935 
1739.015 
1739.095 
1739.175 
1739.255 
1739.335 
1739.415 
1739.495 
1739.575 
1739.655 
1739.734 
1739.814 
1739.894 
1739.974 
1740.054 
1740.134 
1740.214 
1740.294 
1740.374 
1740.454 
1740.534 
1740.614 
1740.694 
1740.774 
1740.854 
1740.934 
1741.014 
1741.094 
1741.174 
1741.254 
1741.334 
1741.414 
1741.494 
1741.574 
1741.654 
1741.734 
1741.814 
1741.894 
1741.974 
1742.054 
1742.134 
1742.214 
1742.294 
1742.374 
1742.454 
1742.534 
1742.614 
1742.694 
1742.773 
1742.853 
1742.933 
1743.013 
1743.093 
1743.173 
1743.253 
1743.333 
1743.413 
1743.493 
1743.573 
1743.653 
1743.733 
1743.813 
1743.893 
1743.973 
1744.053 
1744.133 
1744.213 
1744.293 
1744.373 
1744.453 
1744.533 
1744.612 
1744.692 
1744.772 
1744.852 
1744.932 
1745.012 
1745.092 
1745.172 
1745.252 
1745.332 
1745.412 
1745.492 
1745.572 
1745.652 
1745.732 
1745.812 
1745.892 
1745.972 
1746.051 
1746.131 
1746.211 
1746.291 
1746.371 
1746.451 
1746.531 
1746.611 
1746.691 
1746.771 
1746.851 
1746.931 
1747.011 
1747.091 
1747.171 
1747.250 
1747.330 
1747.410 
1747.490 
1747.570 
1747.650 
1747.730 
1747.810 
1747.890 
1747.970 
1748.050 
1748.130 
1748.210 
1748.289 
1748.369 
1748.449 
1748.529 
1748.609 
1748.689 
1748.769 
1748.849 
1748.929 
1749.009 
1749.089 
1749.169 
1749.249 
1749.328 
1749.408 
1749.488 
1749.568 
1749.648 
1749.728 
1749.808 
1749.888 
1749.968 
1750.048 
1750.128 
1750.207 
1750.287 
1750.367 
1750.447 
1750.527 
1750.607 
1750.687 
1750.767 
1750.847 
1750.927 
1751.006 
1751.086 
1751.166 
1751.246 
1751.326 
1751.406 
1751.486 
1751.566 
1751.646 
1751.726 
1751.805 
1751.885 
1751.965 
1752.045 
1752.125 
1752.205 
1752.285 
1752.365 
1752.445 
1752.525 
1752.604 
1752.684 
1752.764 
1752.844 
1752.924 
1753.004 
1753.084 
1753.164 
1753.244 
1753.323 
1753.403 
1753.483 
1753.563 
1753.643 
1753.723 
1753.803 
1753.883 
1753.962 
1754.042 
1754.122 
1754.202 
1754.282 
1754.362 
1754.442 
1754.522 
1754.601 
1754.681 
1754.761 
1754.841 
1754.921 
1755.001 
1755.081 
1755.161 
1755.240 
1755.320 
1755.400 
1755.480 
1755.560 
1755.640 
1755.720 
1755.800 
1755.879 
1755.959 
1756.039 
1756.119 
1756.199 
1756.279 
1756.359 
1756.438 
1756.518 
1756.598 
1756.678 
1756.758 
1756.838 
1756.918 
1756.997 
1757.077 
1757.157 
1757.237 
1757.317 
1757.397 
1757.477 
1757.556 
1757.636 
1757.716 
1757.796 
1757.876 
1757.956 
1758.036 
1758.115 
1758.195 
1758.275 
1758.355 
1758.435 
1758.515 
1758.595 
1758.674 
1758.754 
1758.834 
1758.914 
1758.994 
1759.074 
1759.153 
1759.233 
1759.313 
1759.393 
1759.473 
1759.553 
1759.632 
1759.712 
1759.792 
1759.872 
1759.952 
1760.032 
1760.112 
1760.191 
1760.271 
1760.351 
1760.431 
1760.511 
1760.591 
1760.670 
1760.750 
1760.830 
1760.910 
1760.990 
1761.069 
1761.149 
1761.229 
1761.309 
1761.389 
1761.469 
1761.548 
1761.628 
1761.708 
1761.788 
1761.868 
1761.948 
1762.027 
1762.107 
1762.187 
1762.267 
1762.347 
1762.426 
1762.506 
1762.586 
1762.666 
1762.746 
1762.826 
1762.905 
1762.985 
1763.065 
1763.145 
1763.225 
1763.304 
1763.384 
1763.464 
1763.544 
1763.624 
1763.704 
1763.783 
1763.863 
1763.943 
1764.023 
1764.103 
1764.182 
1764.262 
1764.342 
1764.422 
1764.502 
1764.581 
1764.661 
1764.741 
1764.821 
1764.901 
1764.980 
1765.060 
1765.140 
1765.220 
1765.300 
1765.379 
1765.459 
1765.539 
1765.619 
1765.699 
1765.778 
1765.858 
1765.938 
1766.018 
1766.098 
1766.177 
1766.257 
1766.337 
1766.417 
1766.496 
1766.576 
1766.656 
1766.736 
1766.816 
1766.895 
1766.975 
1767.055 
1767.135 
1767.215 
1767.294 
1767.374 
1767.454 
1767.534 
1767.613 
1767.693 
1767.773 
1767.853 
1767.933 
1768.012 
1768.092 
1768.172 
1768.252 
1768.331 
1768.411 
1768.491 
1768.571 
1768.651 
1768.730 
1768.810 
1768.890 
1768.970 
1769.049 
1769.129 
1769.209 
1769.289 
1769.368 
1769.448 
1769.528 
1769.608 
1769.688 
1769.767 
1769.847 
1769.927 
1770.007 
1770.086 
1770.166 
1770.246 
1770.326 
1770.405 
1770.485 
1770.565 
1770.645 
1770.724 
1770.804 
1770.884 
1770.964 
1771.043 
1771.123 
1771.203 
1771.283 
1771.362 
1771.442 
1771.522 
1771.602 
1771.681 
1771.761 
1771.841 
1771.921 
1772.000 
1772.080 
1772.160 
1772.240 
1772.319 
1772.399 
1772.479 
1772.559 
1772.638 
1772.718 
1772.798 
1772.878 
1772.957 
1773.037 
1773.117 
1773.197 
1773.276 
1773.356 
1773.436 
1773.516 
1773.595 
1773.675 
1773.755 
1773.835 
1773.914 
1773.994 
1774.074 
1774.153 
1774.233 
1774.313 
1774.393 
1774.472 
1774.552 
1774.632 
1774.712 
1774.791 
1774.871 
1774.951 
1775.030 
1775.110 
1775.190 
1775.270 
1775.349 
1775.429 
1775.509 
1775.589 
1775.668 
1775.748 
1775.828 
1775.907 
1775.987 
1776.067 
1776.147 
1776.226 
1776.306 
1776.386 
1776.465 
1776.545 
1776.625 
1776.705 
1776.784 
1776.864 
1776.944 
1777.023 
1777.103 
1777.183 
1777.263 
1777.342 
1777.422 
1777.502 
1777.581 
1777.661 
1777.741 
1777.821 
1777.900 
1777.980 
1778.060 
1778.139 
1778.219 
1778.299 
1778.378 
1778.458 
1778.538 
1778.618 
1778.697 
1778.777 
1778.857 
1778.936 
1779.016 
1779.096 
1779.175 
1779.255 
1779.335 
1779.415 
1779.494 
1779.574 
1779.654 
1779.733 
1779.813 
1779.893 
1779.972 
1780.052 
1780.132 
1780.211 
1780.291 
1780.371 
1780.450 
1780.530 
1780.610 
1780.690 
1780.769 
1780.849 
1780.929 
1781.008 
1781.088 
1781.168 
1781.247 
1781.327 
1781.407 
1781.486 
1781.566 
1781.646 
1781.725 
1781.805 
1781.885 
1781.964 
1782.044 
1782.124 
1782.203 
1782.283 
1782.363 
1782.442 
1782.522 
1782.602 
1782.681 
1782.761 
1782.841 
1782.920 
1783.000 
1783.080 
1783.159 
1783.239 
1783.319 
1783.398 
1783.478 
1783.558 
1783.637 
1783.717 
1783.797 
1783.876 
1783.956 
1784.036 
1784.115 
1784.195 
1784.275 
1784.354 
1784.434 
1784.514 
1784.593 
1784.673 
1784.753 
1784.832 
1784.912 
1784.992 
1785.071 
1785.151 
1785.231 
1785.310 
1785.390 
1785.470 
1785.549 
1785.629 
1785.708 
1785.788 
1785.868 
1785.947 
1786.027 
1786.107 
1786.186 
1786.266 
1786.346 
1786.425 
1786.505 
1786.585 
1786.664 
1786.744 
1786.823 
1786.903 
1786.983 
1787.062 
1787.142 
1787.222 
1787.301 
1787.381 
1787.461 
1787.540 
1787.620 
1787.699 
1787.779 
1787.859 
1787.938 
1788.018 
1788.098 
1788.177 
1788.257 
1788.337 
1788.416 
1788.496 
1788.575 
1788.655 
1788.735 
1788.814 
1788.894 
1788.974 
1789.053 
1789.133 
1789.212 
1789.292 
1789.372 
1789.451 
1789.531 
1789.611 
1789.690 
1789.770 
1789.849 
1789.929 
1790.009 
1790.088 
1790.168 
1790.247 
1790.327 
1790.407 
1790.486 
1790.566 
1790.646 
1790.725 
1790.805 
1790.884 
1790.964 
1791.044 
1791.123 
1791.203 
1791.282 
1791.362 
1791.442 
1791.521 
1791.601 
1791.680 
1791.760 
1791.840 
1791.919 
1791.999 
1792.078 
1792.158 
1792.238 
1792.317 
1792.397 
1792.476 
1792.556 
1792.636 
1792.715 
1792.795 
1792.874 
1792.954 
1793.034 
1793.113 
1793.193 
1793.272 
1793.352 
1793.432 
1793.511 
1793.591 
1793.670 
1793.750 
1793.829 
1793.909 
1793.989 
1794.068 
1794.148 
1794.227 
1794.307 
1794.387 
1794.466 
1794.546 
1794.625 
1794.705 
1794.784 
1794.864 
1794.944 
1795.023 
1795.103 
1795.182 
1795.262 
1795.342 
1795.421 
1795.501 
1795.580 
1795.660 
1795.739 
1795.819 
1795.899 
1795.978 
1796.058 
1796.137 
1796.217 
1796.296 
1796.376 
1796.456 
1796.535 
1796.615 
1796.694 
1796.774 
1796.853 
1796.933 
1797.013 
1797.092 
1797.172 
1797.251 
1797.331 
1797.410 
1797.490 
1797.569 
1797.649 
1797.729 
1797.808 
1797.888 
1797.967 
1798.047 
1798.126 
1798.206 
1798.285 
1798.365 
1798.445 
1798.524 
1798.604 
1798.683 
1798.763 
1798.842 
1798.922 
1799.001 
1799.081 
1799.161 
1799.240 
1799.320 
1799.399 
1799.479 
1799.558 
1799.638 
1799.717 
1799.797 
1799.876 
1799.956 
1800.036 
1800.115 
1800.195 
1800.274 
1800.354 
1800.433 
1800.513 
1800.592 
1800.672 
1800.751 
1800.831 
1800.910 
1800.990 
1801.070 
1801.149 
1801.229 
1801.308 
1801.388 
1801.467 
1801.547 
1801.626 
1801.706 
1801.785 
1801.865 
1801.944 
1802.024 
1802.103 
1802.183 
1802.263 
1802.342 
1802.422 
1802.501 
1802.581 
1802.660 
1802.740 
1802.819 
1802.899 
1802.978 
1803.058 
1803.137 
1803.217 
1803.296 
1803.376 
1803.455 
1803.535 
1803.614 
1803.694 
1803.773 
1803.853 
1803.932 
1804.012 
1804.091 
1804.171 
1804.250 
1804.330 
1804.409 
1804.489 
1804.569 
1804.648 
1804.728 
1804.807 
1804.887 
1804.966 
1805.046 
1805.125 
1805.205 
1805.284 
1805.364 
1805.443 
1805.523 
1805.602 
1805.682 
1805.761 
1805.841 
1805.920 
1806.000 
1806.079 
1806.159 
1806.238 
1806.318 
1806.397 
1806.477 
1806.556 
1806.636 
1806.715 
1806.795 
1806.874 
1806.954 
1807.033 
1807.112 
1807.192 
1807.271 
1807.351 
1807.430 
1807.510 
1807.589 
1807.669 
1807.748 
1807.828 
1807.907 
1807.987 
1808.066 
1808.146 
1808.225 
1808.305 
1808.384 
1808.464 
1808.543 
1808.623 
1808.702 
1808.782 
1808.861 
1808.941 
1809.020 
1809.100 
1809.179 
1809.259 
1809.338 
1809.417 
1809.497 
1809.576 
1809.656 
1809.735 
1809.815 
1809.894 
1809.974 
1810.053 
1810.133 
1810.212 
1810.292 
1810.371 
1810.451 
1810.530 
1810.609 
1810.689 
1810.768 
1810.848 
1810.927 
1811.007 
1811.086 
1811.166 
1811.245 
1811.325 
1811.404 
1811.484 
1811.563 
1811.642 
1811.722 
1811.801 
1811.881 
1811.960 
1812.040 
1812.119 
1812.199 
1812.278 
1812.358 
1812.437 
1812.516 
1812.596 
1812.675 
1812.755 
1812.834 
1812.914 
1812.993 
1813.073 
1813.152 
1813.231 
1813.311 
1813.390 
1813.470 
1813.549 
1813.629 
1813.708 
1813.788 
1813.867 
1813.946 
1814.026 
1814.105 
1814.185 
1814.264 
1814.344 
1814.423 
1814.503 
1814.582 
1814.661 
1814.741 
1814.820 
1814.900 
1814.979 
1815.059 
1815.138 
1815.217 
1815.297 
1815.376 
1815.456 
1815.535 
1815.615 
1815.694 
1815.773 
1815.853 
1815.932 
1816.012 
1816.091 
1816.171 
1816.250 
1816.329 
1816.409 
1816.488 
1816.568 
1816.647 
1816.727 
1816.806 
1816.885 
1816.965 
1817.044 
1817.124 
1817.203 
1817.282 
1817.362 
1817.441 
1817.521 
1817.600 
1817.680 
1817.759 
1817.838 
1817.918 
1817.997 
1818.077 
1818.156 
1818.235 
1818.315 
1818.394 
1818.474 
1818.553 
1818.632 
1818.712 
1818.791 
1818.871 
1818.950 
1819.029 
1819.109 
1819.188 
1819.268 
1819.347 
1819.426 
1819.506 
1819.585 
1819.665 
1819.744 
1819.823 
1819.903 
1819.982 
1820.062 
1820.141 
1820.220 
1820.300 
1820.379 
1820.459 
1820.538 
1820.617 
1820.697 
1820.776 
1820.856 
1820.935 
1821.014 
1821.094 
1821.173 
1821.252 
1821.332 
1821.411 
1821.491 
1821.570 
1821.649 
1821.729 
1821.808 
1821.888 
1821.967 
1822.046 
1822.126 
1822.205 
1822.284 
1822.364 
1822.443 
1822.523 
1822.602 
1822.681 
1822.761 
1822.840 
1822.919 
1822.999 
1823.078 
1823.158 
1823.237 
1823.316 
1823.396 
1823.475 
1823.554 
1823.634 
1823.713 
1823.793 
1823.872 
1823.951 
1824.031 
1824.110 
1824.189 
1824.269 
1824.348 
1824.427 
1824.507 
1824.586 
1824.666 
1824.745 
1824.824 
1824.904 
1824.983 
1825.062 
1825.142 
1825.221 
1825.300 
1825.380 
1825.459 
1825.538 
1825.618 
1825.697 
1825.777 
1825.856 
1825.935 
1826.015 
1826.094 
1826.173 
1826.253 
1826.332 
1826.411 
1826.491 
1826.570 
1826.649 
1826.729 
1826.808 
1826.887 
1826.967 
1827.046 
1827.125 
1827.205 
1827.284 
1827.363 
1827.443 
1827.522 
1827.601 
1827.681 
1827.760 
1827.839 
1827.919 
1827.998 
1828.077 
1828.157 
1828.236 
1828.316 
1828.395 
1828.474 
1828.554 
1828.633 
1828.712 
1828.791 
1828.871 
1828.950 
1829.029 
1829.109 
1829.188 
1829.267 
1829.347 
1829.426 
1829.505 
1829.585 
1829.664 
1829.743 
1829.823 
1829.902 
1829.981 
1830.061 
1830.140 
1830.219 
1830.299 
1830.378 
1830.457 
1830.537 
1830.616 
1830.695 
1830.775 
1830.854 
1830.933 
1831.013 
1831.092 
1831.171 
1831.250 
1831.330 
1831.409 
1831.488 
1831.568 
1831.647 
1831.726 
1831.806 
1831.885 
1831.964 
1832.044 
1832.123 
1832.202 
1832.281 
1832.361 
1832.440 
1832.519 
1832.599 
1832.678 
1832.757 
1832.837 
1832.916 
1832.995 
1833.074 
1833.154 
1833.233 
1833.312 
1833.392 
1833.471 
1833.550 
1833.630 
1833.709 
1833.788 
1833.867 
1833.947 
1834.026 
1834.105 
1834.185 
1834.264 
1834.343 
1834.422 
1834.502 
1834.581 
1834.660 
1834.740 
1834.819 
1834.898 
1834.977 
1835.057 
1835.136 
1835.215 
1835.295 
1835.374 
1835.453 
1835.532 
1835.612 
1835.691 
1835.770 
1835.850 
1835.929 
1836.008 
1836.087 
1836.167 
1836.246 
1836.325 
1836.405 
1836.484 
1836.563 
1836.642 
1836.722 
1836.801 
1836.880 
1836.959 
1837.039 
1837.118 
1837.197 
1837.277 
1837.356 
1837.435 
1837.514 
1837.594 
1837.673 
1837.752 
1837.831 
1837.911 
1837.990 
1838.069 
1838.148 
1838.228 
1838.307 
1838.386 
1838.465 
1838.545 
1838.624 
1838.703 
1838.782 
1838.862 
1838.941 
1839.020 
1839.100 
1839.179 
1839.258 
1839.337 
1839.417 
1839.496 
1839.575 
1839.654 
1839.734 
1839.813 
1839.892 
1839.971 
1840.051 
1840.130 
1840.209 
1840.288 
1840.368 
1840.447 
1840.526 
1840.605 
1840.684 
1840.764 
1840.843 
1840.922 
1841.001 
1841.081 
1841.160 
1841.239 
1841.318 
1841.398 
1841.477 
1841.556 
1841.635 
1841.715 
1841.794 
1841.873 
1841.952 
1842.032 
1842.111 
1842.190 
1842.269 
1842.348 
1842.428 
1842.507 
1842.586 
1842.665 
1842.745 
1842.824 
1842.903 
1842.982 
1843.061 
1843.141 
1843.220 
1843.299 
1843.378 
1843.458 
1843.537 
1843.616 
1843.695 
1843.774 
1843.854 
1843.933 
1844.012 
1844.091 
1844.171 
1844.250 
1844.329 
1844.408 
1844.487 
1844.567 
1844.646 
1844.725 
1844.804 
1844.884 
1844.963 
1845.042 
1845.121 
1845.200 
1845.280 
1845.359 
1845.438 
1845.517 
1845.596 
1845.676 
1845.755 
1845.834 
1845.913 
1845.992 
1846.072 
1846.151 
1846.230 
1846.309 
1846.388 
1846.468 
1846.547 
1846.626 
1846.705 
1846.784 
1846.864 
1846.943 
1847.022 
1847.101 
1847.180 
1847.260 
1847.339 
1847.418 
1847.497 
1847.576 
1847.656 
1847.735 
1847.814 
1847.893 
1847.972 
1848.052 
1848.131 
1848.210 
1848.289 
1848.368 
1848.447 
1848.527 
1848.606 
1848.685 
1848.764 
1848.843 
1848.923 
1849.002 
1849.081 
1849.160 
1849.239 
1849.318 
1849.398 
1849.477 
1849.556 
1849.635 
1849.714 
1849.794 
1849.873 
1849.952 
1850.031 
1850.110 
1850.189 
1850.269 
1850.348 
1850.427 
1850.506 
1850.585 
1850.664 
1850.744 
1850.823 
1850.902 
1850.981 
1851.060 
1851.139 
1851.219 
1851.298 
1851.377 
1851.456 
1851.535 
1851.614 
1851.694 
1851.773 
1851.852 
1851.931 
1852.010 
1852.089 
1852.169 
1852.248 
1852.327 
1852.406 
1852.485 
1852.564 
1852.643 
1852.723 
1852.802 
1852.881 
1852.960 
1853.039 
1853.118 
1853.198 
1853.277 
1853.356 
1853.435 
1853.514 
1853.593 
1853.672 
1853.752 
1853.831 
1853.910 
1853.989 
1854.068 
1854.147 
1854.226 
1854.306 
1854.385 
1854.464 
1854.543 
1854.622 
1854.701 
1854.780 
1854.860 
1854.939 
1855.018 
1855.097 
1855.176 
1855.255 
1855.334 
1855.413 
1855.493 
1855.572 
1855.651 
1855.730 
1855.809 
1855.888 
1855.967 
1856.047 
1856.126 
1856.205 
1856.284 
1856.363 
1856.442 
1856.521 
1856.600 
1856.680 
1856.759 
1856.838 
1856.917 
1856.996 
1857.075 
1857.154 
1857.233 
1857.313 
1857.392 
1857.471 
1857.550 
1857.629 
1857.708 
1857.787 
1857.866 
1857.945 
1858.025 
1858.104 
1858.183 
1858.262 
1858.341 
1858.420 
1858.499 
1858.578 
1858.657 
1858.737 
1858.816 
1858.895 
1858.974 
1859.053 
1859.132 
1859.211 
1859.290 
1859.369 
1859.449 
1859.528 
1859.607 
1859.686 
1859.765 
1859.844 
1859.923 
1860.002 
1860.081 
1860.160 
1860.240 
1860.319 
1860.398 
1860.477 
1860.556 
1860.635 
1860.714 
1860.793 
1860.872 
1860.951 
1861.031 
1861.110 
1861.189 
1861.268 
1861.347 
1861.426 
1861.505 
1861.584 
1861.663 
1861.742 
1861.821 
1861.900 
1861.980 
1862.059 
1862.138 
1862.217 
1862.296 
1862.375 
1862.454 
1862.533 
1862.612 
1862.691 
1862.770 
1862.849 
1862.929 
1863.008 
1863.087 
1863.166 
1863.245 
1863.324 
1863.403 
1863.482 
1863.561 
1863.640 
1863.719 
1863.798 
1863.877 
1863.957 
1864.036 
1864.115 
1864.194 
1864.273 
1864.352 
1864.431 
1864.510 
1864.589 
1864.668 
1864.747 
1864.826 
1864.905 
1864.984 
1865.063 
1865.143 
1865.222 
1865.301 
1865.380 
1865.459 
1865.538 
1865.617 
1865.696 
1865.775 
1865.854 
1865.933 
1866.012 
1866.091 
1866.170 
1866.249 
1866.328 
1866.407 
1866.486 
1866.566 
1866.645 
1866.724 
1866.803 
1866.882 
1866.961 
1867.040 
1867.119 
1867.198 
1867.277 
1867.356 
1867.435 
1867.514 
1867.593 
1867.672 
1867.751 
1867.830 
1867.909 
1867.988 
1868.067 
1868.146 
1868.225 
1868.305 
1868.384 
1868.463 
1868.542 
1868.621 
1868.700 
1868.779 
1868.858 
1868.937 
1869.016 
1869.095 
1869.174 
1869.253 
1869.332 
1869.411 
1869.490 
1869.569 
1869.648 
1869.727 
1869.806 
1869.885 
1869.964 
1870.043 
1870.122 
1870.201 
1870.280 
1870.359 
1870.438 
1870.517 
1870.596 
1870.675 
1870.754 
1870.833 
1870.912 
1870.992 
1871.071 
1871.150 
1871.229 
1871.308 
1871.387 
1871.466 
1871.545 
1871.624 
1871.703 
1871.782 
1871.861 
1871.940 
1872.019 
1872.098 
1872.177 
1872.256 
1872.335 
1872.414 
1872.493 
1872.572 
1872.651 
1872.730 
1872.809 
1872.888 
1872.967 
1873.046 
1873.125 
1873.204 
1873.283 
1873.362 
1873.441 
1873.520 
1873.599 
1873.678 
1873.757 
1873.836 
1873.915 
1873.994 
1874.073 
1874.152 
1874.231 
1874.310 
1874.389 
1874.468 
1874.547 
1874.626 
1874.705 
1874.784 
1874.863 
1874.942 
1875.021 
1875.100 
1875.179 
1875.258 
1875.337 
1875.416 
1875.495 
1875.574 
1875.653 
1875.732 
1875.811 
1875.890 
1875.969 
1876.048 
1876.126 
1876.205 
1876.284 
1876.363 
1876.442 
1876.521 
1876.600 
1876.679 
1876.758 
1876.837 
1876.916 
1876.995 
1877.074 
1877.153 
1877.232 
1877.311 
1877.390 
1877.469 
1877.548 
1877.627 
1877.706 
1877.785 
1877.864 
1877.943 
1878.022 
1878.101 
1878.180 
1878.259 
1878.338 
1878.417 
1878.496 
1878.575 
1878.654 
1878.733 
1878.811 
1878.890 
1878.969 
1879.048 
1879.127 
1879.206 
1879.285 
1879.364 
1879.443 
1879.522 
1879.601 
1879.680 
1879.759 
1879.838 
1879.917 
1879.996 
1880.075 
1880.154 
1880.233 
1880.312 
1880.391 
1880.470 
1880.548 
1880.627 
1880.706 
1880.785 
1880.864 
1880.943 
1881.022 
1881.101 
1881.180 
1881.259 
1881.338 
1881.417 
1881.496 
1881.575 
1881.654 
1881.733 
1881.812 
1881.891 
1881.969 
1882.048 
1882.127 
1882.206 
1882.285 
1882.364 
1882.443 
1882.522 
1882.601 
1882.680 
1882.759 
1882.838 
1882.917 
1882.996 
1883.075 
1883.153 
1883.232 
1883.311 
1883.390 
1883.469 
1883.548 
1883.627 
1883.706 
1883.785 
1883.864 
1883.943 
1884.022 
1884.101 
1884.179 
1884.258 
1884.337 
1884.416 
1884.495 
1884.574 
1884.653 
1884.732 
1884.811 
1884.890 
1884.969 
1885.048 
1885.126 
1885.205 
1885.284 
1885.363 
1885.442 
1885.521 
1885.600 
1885.679 
1885.758 
1885.837 
1885.916 
1885.994 
1886.073 
1886.152 
1886.231 
1886.310 
1886.389 
1886.468 
1886.547 
1886.626 
1886.705 
1886.784 
1886.862 
1886.941 
1887.020 
1887.099 
1887.178 
1887.257 
1887.336 
1887.415 
1887.494 
1887.573 
1887.651 
1887.730 
1887.809 
1887.888 
1887.967 
1888.046 
1888.125 
1888.204 
1888.283 
1888.361 
1888.440 
1888.519 
1888.598 
1888.677 
1888.756 
1888.835 
1888.914 
1888.993 
1889.071 
1889.150 
1889.229 
1889.308 
1889.387 
1889.466 
1889.545 
1889.624 
1889.702 
1889.781 
1889.860 
1889.939 
1890.018 
1890.097 
1890.176 
1890.255 
1890.334 
1890.412 
1890.491 
1890.570 
1890.649 
1890.728 
1890.807 
1890.886 
1890.964 
1891.043 
1891.122 
1891.201 
1891.280 
1891.359 
1891.438 
1891.517 
1891.595 
1891.674 
1891.753 
1891.832 
1891.911 
1891.990 
1892.069 
1892.147 
1892.226 
1892.305 
1892.384 
1892.463 
1892.542 
1892.621 
1892.700 
1892.778 
1892.857 
1892.936 
1893.015 
1893.094 
1893.173 
1893.251 
1893.330 
1893.409 
1893.488 
1893.567 
1893.646 
1893.725 
1893.803 
1893.882 
1893.961 
1894.040 
1894.119 
1894.198 
1894.277 
1894.355 
1894.434 
1894.513 
1894.592 
1894.671 
1894.750 
1894.828 
1894.907 
1894.986 
1895.065 
1895.144 
1895.223 
1895.301 
1895.380 
1895.459 
1895.538 
1895.617 
1895.696 
1895.775 
1895.853 
1895.932 
1896.011 
1896.090 
1896.169 
1896.248 
1896.326 
1896.405 
1896.484 
1896.563 
1896.642 
1896.720 
1896.799 
1896.878 
1896.957 
1897.036 
1897.115 
1897.193 
1897.272 
1897.351 
1897.430 
1897.509 
1897.588 
1897.666 
1897.745 
1897.824 
1897.903 
1897.982 
1898.060 
1898.139 
1898.218 
1898.297 
1898.376 
1898.455 
1898.533 
1898.612 
1898.691 
1898.770 
1898.849 
1898.927 
1899.006 
1899.085 
1899.164 
1899.243 
1899.321 
1899.400 
1899.479 
1899.558 
1899.637 
1899.716 
1899.794 
1899.873 
1899.952 
1900.031 
1900.110 
1900.188 
1900.267 
1900.346 
1900.425 
1900.504 
1900.582 
1900.661 
1900.740 
1900.819 
1900.898 
1900.976 
1901.055 
1901.134 
1901.213 
1901.292 
1901.370 
1901.449 
1901.528 
1901.607 
1901.685 
1901.764 
1901.843 
1901.922 
1902.001 
1902.079 
1902.158 
1902.237 
1902.316 
1902.395 
1902.473 
1902.552 
1902.631 
1902.710 
1902.789 
1902.867 
1902.946 
1903.025 
1903.104 
1903.182 
1903.261 
1903.340 
1903.419 
1903.498 
1903.576 
1903.655 
1903.734 
1903.813 
1903.891 
1903.970 
1904.049 
1904.128 
1904.206 
1904.285 
1904.364 
1904.443 
1904.522 
1904.600 
1904.679 
1904.758 
1904.837 
1904.915 
1904.994 
1905.073 
1905.152 
1905.230 
1905.309 
1905.388 
1905.467 
1905.546 
1905.624 
1905.703 
1905.782 
1905.861 
1905.939 
1906.018 
1906.097 
1906.176 
1906.254 
1906.333 
1906.412 
1906.491 
1906.569 
1906.648 
1906.727 
1906.806 
1906.884 
1906.963 
1907.042 
1907.121 
1907.199 
1907.278 
1907.357 
1907.436 
1907.514 
1907.593 
1907.672 
1907.751 
1907.829 
1907.908 
1907.987 
1908.066 
1908.144 
1908.223 
1908.302 
1908.381 
1908.459 
1908.538 
1908.617 
1908.696 
1908.774 
1908.853 
1908.932 
1909.011 
1909.089 
1909.168 
1909.247 
1909.325 
1909.404 
1909.483 
1909.562 
1909.640 
1909.719 
1909.798 
1909.877 
1909.955 
1910.034 
1910.113 
1910.192 
1910.270 
1910.349 
1910.428 
1910.506 
1910.585 
1910.664 
1910.743 
1910.821 
1910.900 
1910.979 
1911.057 
1911.136 
1911.215 
1911.294 
1911.372 
1911.451 
1911.530 
1911.609 
1911.687 
1911.766 
1911.845 
1911.923 
1912.002 
1912.081 
1912.160 
1912.238 
1912.317 
1912.396 
1912.474 
1912.553 
1912.632 
1912.710 
1912.789 
1912.868 
1912.947 
1913.025 
1913.104 
1913.183 
1913.261 
1913.340 
1913.419 
1913.498 
1913.576 
1913.655 
1913.734 
1913.812 
1913.891 
1913.970 
1914.048 
1914.127 
1914.206 
1914.285 
1914.363 
1914.442 
1914.521 
1914.599 
1914.678 
1914.757 
1914.835 
1914.914 
1914.993 
1915.072 
1915.150 
1915.229 
1915.308 
1915.386 
1915.465 
1915.544 
1915.622 
1915.701 
1915.780 
1915.858 
1915.937 
1916.016 
1916.094 
1916.173 
1916.252 
1916.330 
1916.409 
1916.488 
1916.567 
1916.645 
1916.724 
1916.803 
1916.881 
1916.960 
1917.039 
1917.117 
1917.196 
1917.275 
1917.353 
1917.432 
1917.511 
1917.589 
1917.668 
1917.747 
1917.825 
1917.904 
1917.983 
1918.061 
1918.140 
1918.219 
1918.297 
1918.376 
1918.455 
1918.533 
1918.612 
1918.691 
1918.769 
1918.848 
1918.927 
1919.005 
1919.084 
1919.163 
1919.241 
1919.320 
1919.399 
1919.477 
1919.556 
1919.635 
1919.713 
1919.792 
1919.871 
1919.949 
1920.028 
1920.107 
1920.185 
1920.264 
1920.343 
1920.421 
1920.500 
1920.578 
1920.657 
1920.736 
1920.814 
1920.893 
1920.972 
1921.050 
1921.129 
1921.208 
1921.286 
1921.365 
1921.444 
1921.522 
1921.601 
1921.680 
1921.758 
1921.837 
1921.915 
1921.994 
1922.073 
1922.151 
1922.230 
1922.309 
1922.387 
1922.466 
1922.545 
1922.623 
1922.702 
1922.780 
1922.859 
1922.938 
1923.016 
1923.095 
1923.174 
1923.252 
1923.331 
1923.410 
1923.488 
1923.567 
1923.645 
1923.724 
1923.803 
1923.881 
1923.960 
1924.039 
1924.117 
1924.196 
1924.274 
1924.353 
1924.432 
1924.510 
1924.589 
1924.668 
1924.746 
1924.825 
1924.903 
1924.982 
1925.061 
1925.139 
1925.218 
1925.296 
1925.375 
1925.454 
1925.532 
1925.611 
1925.690 
1925.768 
1925.847 
1925.925 
1926.004 
1926.083 
1926.161 
1926.240 
1926.318 
1926.397 
1926.476 
1926.554 
1926.633 
1926.711 
1926.790 
1926.869 
1926.947 
1927.026 
1927.104 
1927.183 
1927.262 
1927.340 
1927.419 
1927.497 
1927.576 
1927.655 
1927.733 
1927.812 
1927.890 
1927.969 
1928.048 
1928.126 
1928.205 
1928.283 
1928.362 
1928.441 
1928.519 
1928.598 
1928.676 
1928.755 
1928.834 
1928.912 
1928.991 
1929.069 
1929.148 
1929.227 
1929.305 
1929.384 
1929.462 
1929.541 
1929.619 
1929.698 
1929.777 
1929.855 
1929.934 
1930.012 
1930.091 
1930.170 
1930.248 
1930.327 
1930.405 
1930.484 
1930.562 
1930.641 
1930.720 
1930.798 
1930.877 
1930.955 
1931.034 
1931.112 
1931.191 
1931.270 
1931.348 
1931.427 
1931.505 
1931.584 
1931.662 
1931.741 
1931.820 
1931.898 
1931.977 
1932.055 
1932.134 
1932.212 
1932.291 
1932.369 
1932.448 
1932.527 
1932.605 
1932.684 
1932.762 
1932.841 
1932.919 
1932.998 
1933.077 
1933.155 
1933.234 
1933.312 
1933.391 
1933.469 
1933.548 
1933.626 
1933.705 
1933.784 
1933.862 
1933.941 
1934.019 
1934.098 
1934.176 
1934.255 
1934.333 
1934.412 
1934.490 
1934.569 
1934.648 
1934.726 
1934.805 
1934.883 
1934.962 
1935.040 
1935.119 
1935.197 
1935.276 
1935.354 
1935.433 
1935.512 
1935.590 
1935.669 
1935.747 
1935.826 
1935.904 
1935.983 
1936.061 
1936.140 
1936.218 
1936.297 
1936.375 
1936.454 
1936.533 
1936.611 
1936.690 
1936.768 
1936.847 
1936.925 
1937.004 
1937.082 
1937.161 
1937.239 
1937.318 
1937.396 
1937.475 
1937.553 
1937.632 
1937.710 
1937.789 
1937.867 
1937.946 
1938.025 
1938.103 
1938.182 
1938.260 
1938.339 
1938.417 
1938.496 
1938.574 
1938.653 
1938.731 
1938.810 
1938.888 
1938.967 
1939.045 
1939.124 
1939.202 
1939.281 
1939.359 
1939.438 
1939.516 
1939.595 
1939.673 
1939.752 
1939.830 
1939.909 
1939.987 
1940.066 
1940.144 
1940.223 
1940.301 
1940.380 
1940.458 
1940.537 
1940.615 
1940.694 
1940.772 
1940.851 
1940.929 
1941.008 
1941.086 
1941.165 
1941.243 
1941.322 
1941.400 
1941.479 
1941.557 
1941.636 
1941.714 
1941.793 
1941.871 
1941.950 
1942.028 
1942.107 
1942.185 
1942.264 
1942.342 
1942.421 
1942.499 
1942.578 
1942.656 
1942.735 
1942.813 
1942.892 
1942.970 
1943.049 
1943.127 
1943.206 
1943.284 
1943.363 
1943.441 
1943.520 
1943.598 
1943.676 
1943.755 
1943.833 
1943.912 
1943.990 
1944.069 
1944.147 
1944.226 
1944.304 
1944.383 
1944.461 
1944.540 
1944.618 
1944.697 
1944.775 
1944.854 
1944.932 
1945.011 
1945.089 
1945.167 
1945.246 
1945.324 
1945.403 
1945.481 
1945.560 
1945.638 
1945.717 
1945.795 
1945.874 
1945.952 
1946.031 
1946.109 
1946.188 
1946.266 
1946.344 
1946.423 
1946.501 
1946.580 
1946.658 
1946.737 
1946.815 
1946.894 
1946.972 
1947.051 
1947.129 
1947.207 
1947.286 
1947.364 
1947.443 
1947.521 
1947.600 
1947.678 
1947.757 
1947.835 
1947.913 
1947.992 
1948.070 
1948.149 
1948.227 
1948.306 
1948.384 
1948.463 
1948.541 
1948.619 
1948.698 
1948.776 
1948.855 
1948.933 
1949.012 
1949.090 
1949.169 
1949.247 
1949.325 
1949.404 
1949.482 
1949.561 
1949.639 
1949.718 
1949.796 
1949.874 
1949.953 
1950.031 
1950.110 
1950.188 
1950.267 
1950.345 
1950.423 
1950.502 
1950.580 
1950.659 
1950.737 
1950.816 
1950.894 
1950.972 
1951.051 
1951.129 
1951.208 
1951.286 
1951.365 
1951.443 
1951.521 
1951.600 
1951.678 
1951.757 
1951.835 
1951.914 
1951.992 
1952.070 
1952.149 
1952.227 
1952.306 
1952.384 
1952.462 
1952.541 
1952.619 
1952.698 
1952.776 
1952.854 
1952.933 
1953.011 
1953.090 
1953.168 
1953.247 
1953.325 
1953.403 
1953.482 
1953.560 
1953.639 
1953.717 
1953.795 
1953.874 
1953.952 
1954.031 
1954.109 
1954.187 
1954.266 
1954.344 
1954.423 
1954.501 
1954.579 
1954.658 
1954.736 
1954.815 
1954.893 
1954.971 
1955.050 
1955.128 
1955.207 
1955.285 
1955.363 
1955.442 
1955.520 
1955.598 
1955.677 
1955.755 
1955.834 
1955.912 
1955.990 
1956.069 
1956.147 
1956.226 
1956.304 
1956.382 
1956.461 
1956.539 
1956.618 
1956.696 
1956.774 
1956.853 
1956.931 
1957.009 
1957.088 
1957.166 
1957.245 
1957.323 
1957.401 
1957.480 
1957.558 
1957.636 
1957.715 
1957.793 
1957.872 
1957.950 
1958.028 
1958.107 
1958.185 
1958.263 
1958.342 
1958.420 
1958.499 
1958.577 
1958.655 
1958.734 
1958.812 
1958.890 
1958.969 
1959.047 
1959.125 
1959.204 
1959.282 
1959.361 
1959.439 
1959.517 
1959.596 
1959.674 
1959.752 
1959.831 
1959.909 
1959.987 
1960.066 
1960.144 
1960.222 
1960.301 
1960.379 
1960.458 
1960.536 
1960.614 
1960.693 
1960.771 
1960.849 
1960.928 
1961.006 
1961.084 
1961.163 
1961.241 
1961.319 
1961.398 
1961.476 
1961.554 
1961.633 
1961.711 
1961.789 
1961.868 
1961.946 
1962.024 
1962.103 
1962.181 
1962.260 
1962.338 
1962.416 
1962.495 
1962.573 
1962.651 
1962.730 
1962.808 
1962.886 
1962.965 
1963.043 
1963.121 
1963.200 
1963.278 
1963.356 
1963.435 
1963.513 
1963.591 
1963.670 
1963.748 
1963.826 
1963.905 
1963.983 
1964.061 
1964.139 
1964.218 
1964.296 
1964.374 
1964.453 
1964.531 
1964.609 
1964.688 
1964.766 
1964.844 
1964.923 
1965.001 
1965.079 
1965.158 
1965.236 
1965.314 
1965.393 
1965.471 
1965.549 
1965.628 
1965.706 
1965.784 
1965.863 
1965.941 
1966.019 
1966.097 
1966.176 
1966.254 
1966.332 
1966.411 
1966.489 
1966.567 
1966.646 
1966.724 
1966.802 
1966.881 
1966.959 
1967.037 
1967.115 
1967.194 
1967.272 
1967.350 
1967.429 
1967.507 
1967.585 
1967.664 
1967.742 
1967.820 
1967.898 
1967.977 
1968.055 
1968.133 
1968.212 
1968.290 
1968.368 
1968.447 
1968.525 
1968.603 
1968.681 
1968.760 
1968.838 
1968.916 
1968.995 
1969.073 
1969.151 
1969.229 
1969.308 
1969.386 
1969.464 
1969.543 
1969.621 
1969.699 
1969.777 
1969.856 
1969.934 
1970.012 
1970.091 
1970.169 
1970.247 
1970.325 
1970.404 
1970.482 
1970.560 
1970.639 
1970.717 
1970.795 
1970.873 
1970.952 
1971.030 
1971.108 
1971.186 
1971.265 
1971.343 
1971.421 
1971.500 
1971.578 
1971.656 
1971.734 
1971.813 
1971.891 
1971.969 
1972.047 
1972.126 
1972.204 
1972.282 
1972.360 
1972.439 
1972.517 
1972.595 
1972.674 
1972.752 
1972.830 
1972.908 
1972.987 
1973.065 
1973.143 
1973.221 
1973.300 
1973.378 
1973.456 
1973.534 
1973.613 
1973.691 
1973.769 
1973.847 
1973.926 
1974.004 
1974.082 
1974.160 
1974.239 
1974.317 
1974.395 
1974.473 
1974.552 
1974.630 
1974.708 
1974.786 
1974.865 
1974.943 
1975.021 
1975.099 
1975.178 
1975.256 
1975.334 
1975.412 
1975.491 
1975.569 
1975.647 
1975.725 
1975.804 
1975.882 
1975.960 
1976.038 
1976.117 
1976.195 
1976.273 
1976.351 
1976.429 
1976.508 
1976.586 
1976.664 
1976.742 
1976.821 
1976.899 
1976.977 
1977.055 
1977.134 
1977.212 
1977.290 
1977.368 
1977.446 
1977.525 
1977.603 
1977.681 
1977.759 
1977.838 
1977.916 
1977.994 
1978.072 
1978.150 
1978.229 
1978.307 
1978.385 
1978.463 
1978.542 
1978.620 
1978.698 
1978.776 
1978.854 
1978.933 
1979.011 
1979.089 
1979.167 
1979.246 
1979.324 
1979.402 
1979.480 
1979.558 
1979.637 
1979.715 
1979.793 
1979.871 
1979.949 
1980.028 
1980.106 
1980.184 
1980.262 
1980.340 
1980.419 
1980.497 
1980.575 
1980.653 
1980.731 
1980.810 
1980.888 
1980.966 
1981.044 
1981.122 
1981.201 
1981.279 
1981.357 
1981.435 
1981.513 
1981.592 
1981.670 
1981.748 
1981.826 
1981.904 
1981.983 
1982.061 
1982.139 
1982.217 
1982.295 
1982.374 
1982.452 
1982.530 
1982.608 
1982.686 
1982.765 
1982.843 
1982.921 
1982.999 
1983.077 
1983.155 
1983.234 
1983.312 
1983.390 
1983.468 
1983.546 
1983.625 
1983.703 
1983.781 
1983.859 
1983.937 
1984.015 
1984.094 
1984.172 
1984.250 
1984.328 
1984.406 
1984.484 
1984.563 
1984.641 
1984.719 
1984.797 
1984.875 
1984.954 
1985.032 
1985.110 
1985.188 
1985.266 
1985.344 
1985.423 
1985.501 
1985.579 
1985.657 
1985.735 
1985.813 
1985.892 
1985.970 
1986.048 
1986.126 
1986.204 
1986.282 
1986.360 
1986.439 
1986.517 
1986.595 
1986.673 
1986.751 
1986.829 
1986.908 
1986.986 
1987.064 
1987.142 
1987.220 
1987.298 
1987.377 
1987.455 
1987.533 
1987.611 
1987.689 
1987.767 
1987.845 
1987.924 
1988.002 
1988.080 
1988.158 
1988.236 
1988.314 
1988.392 
1988.471 
1988.549 
1988.627 
1988.705 
1988.783 
1988.861 
1988.939 
1989.018 
1989.096 
1989.174 
1989.252 
1989.330 
1989.408 
1989.486 
1989.565 
1989.643 
1989.721 
1989.799 
1989.877 
1989.955 
1990.033 
1990.111 
1990.190 
1990.268 
1990.346 
1990.424 
1990.502 
1990.580 
1990.658 
1990.737 
1990.815 
1990.893 
1990.971 
1991.049 
1991.127 
1991.205 
1991.283 
1991.362 
1991.440 
1991.518 
1991.596 
1991.674 
1991.752 
1991.830 
1991.908 
1991.986 
1992.065 
1992.143 
1992.221 
1992.299 
1992.377 
1992.455 
1992.533 
1992.611 
1992.690 
1992.768 
1992.846 
1992.924 
1993.002 
1993.080 
1993.158 
1993.236 
1993.314 
1993.392 
1993.471 
1993.549 
1993.627 
1993.705 
1993.783 
1993.861 
1993.939 
1994.017 
1994.095 
1994.174 
1994.252 
1994.330 
1994.408 
1994.486 
1994.564 
1994.642 
1994.720 
1994.798 
1994.876 
1994.955 
1995.033 
1995.111 
1995.189 
1995.267 
1995.345 
1995.423 
1995.501 
1995.579 
1995.657 
1995.735 
1995.814 
1995.892 
1995.970 
1996.048 
1996.126 
1996.204 
1996.282 
1996.360 
1996.438 
1996.516 
1996.594 
1996.672 
1996.751 
1996.829 
1996.907 
1996.985 
1997.063 
1997.141 
1997.219 
1997.297 
1997.375 
1997.453 
1997.531 
1997.609 
1997.688 
1997.766 
1997.844 
1997.922 
1998.000 
1998.078 
1998.156 
1998.234 
1998.312 
1998.390 
1998.468 
1998.546 
1998.624 
1998.702 
1998.780 
1998.859 
1998.937 
1999.015 
1999.093 
1999.171 
1999.249 
1999.327 
1999.405 
1999.483 
1999.561 
1999.639 
1999.717 
1999.795 
1999.873 
1999.951 
2000.029 
2000.108 
2000.186 
2000.264 
2000.342 
2000.420 
2000.498 
2000.576 
2000.654 
2000.732 
2000.810 
2000.888 
2000.966 
2001.044 
2001.122 
2001.200 
2001.278 
2001.356 
2001.434 
2001.512 
2001.591 
2001.669 
2001.747 
2001.825 
2001.903 
2001.981 
2002.059 
2002.137 
2002.215 
2002.293 
2002.371 
2002.449 
2002.527 
2002.605 
2002.683 
2002.761 
2002.839 
2002.917 
2002.995 
2003.073 
2003.151 
2003.229 
2003.307 
2003.385 
2003.463 
2003.541 
2003.620 
2003.698 
2003.776 
2003.854 
2003.932 
2004.010 
2004.088 
2004.166 
2004.244 
2004.322 
2004.400 
2004.478 
2004.556 
2004.634 
2004.712 
2004.790 
2004.868 
2004.946 
2005.024 
2005.102 
2005.180 
2005.258 
2005.336 
2005.414 
2005.492 
2005.570 
2005.648 
2005.726 
2005.804 
2005.882 
2005.960 
2006.038 
2006.116 
2006.194 
2006.272 
2006.350 
2006.428 
2006.506 
2006.584 
2006.662 
2006.740 
2006.818 
2006.896 
2006.974 
2007.052 
2007.130 
2007.208 
2007.286 
2007.364 
2007.442 
2007.520 
2007.598 
2007.676 
2007.754 
2007.832 
2007.910 
2007.988 
2008.066 
2008.144 
2008.222 
2008.300 
2008.378 
2008.456 
2008.534 
2008.612 
2008.690 
2008.768 
2008.846 
2008.924 
2009.002 
2009.080 
2009.158 
2009.236 
2009.314 
2009.392 
2009.470 
2009.548 
2009.626 
2009.704 
2009.782 
2009.860 
2009.938 
2010.016 
2010.094 
2010.172 
2010.250 
2010.328 
2010.406 
2010.484 
2010.562 
2010.640 
2010.718 
2010.796 
2010.874 
2010.952 
2011.030 
2011.108 
2011.186 
2011.264 
2011.342 
2011.420 
2011.498 
2011.576 
2011.654 
2011.732 
2011.809 
2011.887 
2011.965 
2012.043 
2012.121 
2012.199 
2012.277 
2012.355 
2012.433 
2012.511 
2012.589 
2012.667 
2012.745 
2012.823 
2012.901 
2012.979 
2013.057 
2013.135 
2013.213 
2013.291 
2013.369 
2013.447 
2013.525 
2013.603 
2013.681 
2013.759 
2013.836 
2013.914 
2013.992 
2014.070 
2014.148 
2014.226 
2014.304 
2014.382 
2014.460 
2014.538 
2014.616 
2014.694 
2014.772 
2014.850 
2014.928 
2015.006 
2015.084 
2015.162 
2015.240 
2015.318 
2015.395 
2015.473 
2015.551 
2015.629 
2015.707 
2015.785 
2015.863 
2015.941 
2016.019 
2016.097 
2016.175 
2016.253 
2016.331 
2016.409 
2016.487 
2016.565 
2016.642 
2016.720 
2016.798 
2016.876 
2016.954 
2017.032 
2017.110 
2017.188 
2017.266 
2017.344 
2017.422 
2017.500 
2017.578 
2017.656 
2017.733 
2017.811 
2017.889 
2017.967 
2018.045 
2018.123 
2018.201 
2018.279 
2018.357 
2018.435 
2018.513 
2018.591 
2018.669 
2018.746 
2018.824 
2018.902 
2018.980 
2019.058 
2019.136 
2019.214 
2019.292 
2019.370 
2019.448 
2019.526 
2019.603 
2019.681 
2019.759 
2019.837 
2019.915 
2019.993 
2020.071 
2020.149 
2020.227 
2020.305 
2020.383 
2020.460 
2020.538 
2020.616 
2020.694 
2020.772 
2020.850 
2020.928 
2021.006 
2021.084 
2021.162 
2021.239 
2021.317 
2021.395 
2021.473 
2021.551 
2021.629 
2021.707 
2021.785 
2021.863 
2021.941 
2022.018 
2022.096 
2022.174 
2022.252 
2022.330 
2022.408 
2022.486 
2022.564 
2022.642 
2022.719 
2022.797 
2022.875 
2022.953 
2023.031 
2023.109 
2023.187 
2023.265 
2023.343 
2023.420 
2023.498 
2023.576 
2023.654 
2023.732 
2023.810 
2023.888 
2023.966 
2024.043 
2024.121 
2024.199 
2024.277 
2024.355 
2024.433 
2024.511 
2024.589 
2024.666 
2024.744 
2024.822 
2024.900 
2024.978 
2025.056 
2025.134 
2025.212 
2025.289 
2025.367 
2025.445 
2025.523 
2025.601 
2025.679 
2025.757 
2025.834 
2025.912 
2025.990 
2026.068 
2026.146 
2026.224 
2026.302 
2026.379 
2026.457 
2026.535 
2026.613 
2026.691 
2026.769 
2026.847 
2026.924 
2027.002 
2027.080 
2027.158 
2027.236 
2027.314 
2027.392 
2027.469 
2027.547 
2027.625 
2027.703 
2027.781 
2027.859 
2027.937 
2028.014 
2028.092 
2028.170 
2028.248 
2028.326 
2028.404 
2028.481 
2028.559 
2028.637 
2028.715 
2028.793 
2028.871 
2028.949 
2029.026 
2029.104 
2029.182 
2029.260 
2029.338 
2029.416 
2029.493 
2029.571 
2029.649 
2029.727 
2029.805 
2029.883 
2029.960 
2030.038 
2030.116 
2030.194 
2030.272 
2030.350 
2030.427 
2030.505 
2030.583 
2030.661 
2030.739 
2030.817 
2030.894 
2030.972 
2031.050 
2031.128 
2031.206 
2031.283 
2031.361 
2031.439 
2031.517 
2031.595 
2031.673 
2031.750 
2031.828 
2031.906 
2031.984 
2032.062 
2032.140 
2032.217 
2032.295 
2032.373 
2032.451 
2032.529 
2032.606 
2032.684 
2032.762 
2032.840 
2032.918 
2032.995 
2033.073 
2033.151 
2033.229 
2033.307 
2033.384 
2033.462 
2033.540 
2033.618 
2033.696 
2033.774 
2033.851 
2033.929 
2034.007 
2034.085 
2034.163 
2034.240 
2034.318 
2034.396 
2034.474 
2034.552 
2034.629 
2034.707 
2034.785 
2034.863 
2034.941 
2035.018 
2035.096 
2035.174 
2035.252 
2035.329 
2035.407 
2035.485 
2035.563 
2035.641 
2035.718 
2035.796 
2035.874 
2035.952 
2036.030 
2036.107 
2036.185 
2036.263 
2036.341 
2036.419 
2036.496 
2036.574 
2036.652 
2036.730 
2036.807 
2036.885 
2036.963 
2037.041 
2037.119 
2037.196 
2037.274 
2037.352 
2037.430 
2037.507 
2037.585 
2037.663 
2037.741 
2037.819 
2037.896 
2037.974 
2038.052 
2038.130 
2038.207 
2038.285 
2038.363 
2038.441 
2038.518 
2038.596 
2038.674 
2038.752 
2038.830 
2038.907 
2038.985 
2039.063 
2039.141 
2039.218 
2039.296 
2039.374 
2039.452 
2039.529 
2039.607 
2039.685 
2039.763 
2039.840 
2039.918 
2039.996 
2040.074 
2040.151 
2040.229 
2040.307 
2040.385 
2040.463 
2040.540 
2040.618 
2040.696 
2040.774 
2040.851 
2040.929 
2041.007 
2041.085 
2041.162 
2041.240 
2041.318 
2041.396 
2041.473 
2041.551 
2041.629 
2041.707 
2041.784 
2041.862 
2041.940 
2042.017 
2042.095 
2042.173 
2042.251 
2042.328 
2042.406 
2042.484 
2042.562 
2042.639 
2042.717 
2042.795 
2042.873 
2042.950 
2043.028 
2043.106 
2043.184 
2043.261 
2043.339 
2043.417 
2043.494 
2043.572 
2043.650 
2043.728 
2043.805 
2043.883 
2043.961 
2044.039 
2044.116 
2044.194 
2044.272 
2044.349 
2044.427 
2044.505 
2044.583 
2044.660 
2044.738 
2044.816 
2044.894 
2044.971 
2045.049 
2045.127 
2045.204 
2045.282 
2045.360 
2045.438 
2045.515 
2045.593 
2045.671 
2045.748 
2045.826 
2045.904 
2045.982 
2046.059 
2046.137 
2046.215 
2046.292 
2046.370 
2046.448 
2046.526 
2046.603 
2046.681 
2046.759 
2046.836 
2046.914 
2046.992 
2047.069 
2047.147 
2047.225 
2047.303 
2047.380 
2047.458 
2047.536 
2047.613 
2047.691 
2047.769 
2047.846 
2047.924 
2048.002 
2048.080 
2048.157 
2048.235 
2048.313 
2048.390 
2048.468 
2048.546 
2048.623 
2048.701 
2048.779 
2048.857 
2048.934 
2049.012 
2049.090 
2049.167 
2049.245 
2049.323 
2049.400 
2049.478 
2049.556 
2049.633 
2049.711 
2049.789 
2049.866 
2049.944 
2050.022 
2050.099 
2050.177 
2050.255 
2050.333 
2050.410 
2050.488 
2050.566 
2050.643 
2050.721 
2050.799 
2050.876 
2050.954 
2051.032 
2051.109 
2051.187 
2051.265 
2051.342 
2051.420 
2051.498 
2051.575 
2051.653 
2051.731 
2051.808 
2051.886 
2051.964 
2052.041 
2052.119 
2052.197 
2052.274 
2052.352 
2052.430 
2052.507 
2052.585 
2052.663 
2052.740 
2052.818 
2052.896 
2052.973 
2053.051 
2053.129 
2053.206 
2053.284 
2053.362 
2053.439 
2053.517 
2053.595 
2053.672 
2053.750 
2053.828 
2053.905 
2053.983 
2054.060 
2054.138 
2054.216 
2054.293 
2054.371 
2054.449 
2054.526 
2054.604 
2054.682 
2054.759 
2054.837 
2054.915 
2054.992 
2055.070 
2055.148 
2055.225 
2055.303 
2055.380 
2055.458 
2055.536 
2055.613 
2055.691 
2055.769 
2055.846 
2055.924 
2056.002 
2056.079 
2056.157 
2056.234 
2056.312 
2056.390 
2056.467 
2056.545 
2056.623 
2056.700 
2056.778 
2056.856 
2056.933 
2057.011 
2057.088 
2057.166 
2057.244 
2057.321 
2057.399 
2057.477 
2057.554 
2057.632 
2057.709 
2057.787 
2057.865 
2057.942 
2058.020 
2058.098 
2058.175 
2058.253 
2058.330 
2058.408 
2058.486 
2058.563 
2058.641 
2058.719 
2058.796 
2058.874 
2058.951 
2059.029 
2059.107 
2059.184 
2059.262 
2059.339 
2059.417 
2059.495 
2059.572 
2059.650 
2059.727 
2059.805 
2059.883 
2059.960 
2060.038 
2060.116 
2060.193 
2060.271 
2060.348 
2060.426 
2060.504 
2060.581 
2060.659 
2060.736 
2060.814 
2060.892 
2060.969 
2061.047 
2061.124 
2061.202 
2061.280 
2061.357 
2061.435 
2061.512 
2061.590 
2061.668 
2061.745 
2061.823 
2061.900 
2061.978 
2062.055 
2062.133 
2062.211 
2062.288 
2062.366 
2062.443 
2062.521 
2062.599 
2062.676 
2062.754 
2062.831 
2062.909 
2062.987 
2063.064 
2063.142 
2063.219 
2063.297 
2063.374 
2063.452 
2063.530 
2063.607 
2063.685 
2063.762 
2063.840 
2063.917 
2063.995 
2064.073 
2064.150 
2064.228 
2064.305 
2064.383 
2064.461 
2064.538 
2064.616 
2064.693 
2064.771 
2064.848 
2064.926 
2065.004 
2065.081 
2065.159 
2065.236 
2065.314 
2065.391 
2065.469 
2065.546 
2065.624 
2065.702 
2065.779 
2065.857 
2065.934 
2066.012 
2066.089 
2066.167 
2066.245 
2066.322 
2066.400 
2066.477 
2066.555 
2066.632 
2066.710 
2066.787 
2066.865 
2066.943 
2067.020 
2067.098 
2067.175 
2067.253 
2067.330 
2067.408 
2067.485 
2067.563 
2067.641 
2067.718 
2067.796 
2067.873 
2067.951 
2068.028 
2068.106 
2068.183 
2068.261 
2068.338 
2068.416 
2068.494 
2068.571 
2068.649 
2068.726 
2068.804 
2068.881 
2068.959 
2069.036 
2069.114 
2069.191 
2069.269 
2069.346 
2069.424 
2069.502 
2069.579 
2069.657 
2069.734 
2069.812 
2069.889 
2069.967 
2070.044 
2070.122 
2070.199 
2070.277 
2070.354 
2070.432 
2070.509 
2070.587 
2070.664 
2070.742 
2070.820 
2070.897 
2070.975 
2071.052 
2071.130 
2071.207 
2071.285 
2071.362 
2071.440 
2071.517 
2071.595 
2071.672 
2071.750 
2071.827 
2071.905 
2071.982 
2072.060 
2072.137 
2072.215 
2072.292 
2072.370 
2072.447 
2072.525 
2072.602 
2072.680 
2072.757 
2072.835 
2072.913 
2072.990 
2073.068 
2073.145 
2073.223 
2073.300 
2073.378 
2073.455 
2073.533 
2073.610 
2073.688 
2073.765 
2073.843 
2073.920 
2073.998 
2074.075 
2074.153 
2074.230 
2074.308 
2074.385 
2074.463 
2074.540 
2074.618 
2074.695 
2074.773 
2074.850 
2074.928 
2075.005 
2075.083 
2075.160 
2075.238 
2075.315 
2075.393 
2075.470 
2075.547 
2075.625 
2075.702 
2075.780 
2075.857 
2075.935 
2076.012 
2076.090 
2076.167 
2076.245 
2076.322 
2076.400 
2076.477 
2076.555 
2076.632 
2076.710 
2076.787 
2076.865 
2076.942 
2077.020 
2077.097 
2077.175 
2077.252 
2077.330 
2077.407 
2077.485 
2077.562 
2077.639 
2077.717 
2077.794 
2077.872 
2077.949 
2078.027 
2078.104 
2078.182 
2078.259 
2078.337 
2078.414 
2078.492 
2078.569 
2078.647 
2078.724 
2078.802 
2078.879 
2078.956 
2079.034 
2079.111 
2079.189 
2079.266 
2079.344 
2079.421 
2079.499 
2079.576 
2079.654 
2079.731 
2079.809 
2079.886 
2079.963 
2080.041 
2080.118 
2080.196 
2080.273 
2080.351 
2080.428 
2080.506 
2080.583 
2080.661 
2080.738 
2080.815 
2080.893 
2080.970 
2081.048 
2081.125 
2081.203 
2081.280 
2081.358 
2081.435 
2081.512 
2081.590 
2081.667 
2081.745 
2081.822 
2081.900 
2081.977 
2082.055 
2082.132 
2082.209 
2082.287 
2082.364 
2082.442 
2082.519 
2082.597 
2082.674 
2082.751 
2082.829 
2082.906 
2082.984 
2083.061 
2083.139 
2083.216 
2083.294 
2083.371 
2083.448 
2083.526 
2083.603 
2083.681 
2083.758 
2083.836 
2083.913 
2083.990 
2084.068 
2084.145 
2084.223 
2084.300 
2084.377 
2084.455 
2084.532 
2084.610 
2084.687 
2084.765 
2084.842 
2084.919 
2084.997 
2085.074 
2085.152 
2085.229 
2085.307 
2085.384 
2085.461 
2085.539 
2085.616 
2085.694 
2085.771 
2085.848 
2085.926 
2086.003 
2086.081 
2086.158 
2086.235 
2086.313 
2086.390 
2086.468 
2086.545 
2086.622 
2086.700 
2086.777 
2086.855 
2086.932 
2087.010 
2087.087 
2087.164 
2087.242 
2087.319 
2087.397 
2087.474 
2087.551 
2087.629 
2087.706 
2087.784 
2087.861 
2087.938 
2088.016 
2088.093 
2088.170 
2088.248 
2088.325 
2088.403 
2088.480 
2088.557 
2088.635 
2088.712 
2088.790 
2088.867 
2088.944 
2089.022 
2089.099 
2089.177 
2089.254 
2089.331 
2089.409 
2089.486 
2089.563 
2089.641 
2089.718 
2089.796 
2089.873 
2089.950 
2090.028 
2090.105 
2090.183 
2090.260 
2090.337 
2090.415 
2090.492 
2090.569 
2090.647 
2090.724 
2090.802 
2090.879 
2090.956 
2091.034 
2091.111 
2091.188 
2091.266 
2091.343 
2091.421 
2091.498 
2091.575 
2091.653 
2091.730 
2091.807 
2091.885 
2091.962 
2092.039 
2092.117 
2092.194 
2092.272 
2092.349 
2092.426 
2092.504 
2092.581 
2092.658 
2092.736 
2092.813 
2092.890 
2092.968 
2093.045 
2093.123 
2093.200 
2093.277 
2093.355 
2093.432 
2093.509 
2093.587 
2093.664 
2093.741 
2093.819 
2093.896 
2093.973 
2094.051 
2094.128 
2094.205 
2094.283 
2094.360 
2094.437 
2094.515 
2094.592 
2094.670 
2094.747 
2094.824 
2094.902 
2094.979 
2095.056 
2095.134 
2095.211 
2095.288 
2095.366 
2095.443 
2095.520 
2095.598 
2095.675 
2095.752 
2095.830 
2095.907 
2095.984 
2096.062 
2096.139 
2096.216 
2096.294 
2096.371 
2096.448 
2096.526 
2096.603 
2096.680 
2096.758 
2096.835 
2096.912 
2096.990 
2097.067 
2097.144 
2097.222 
2097.299 
2097.376 
2097.454 
2097.531 
2097.608 
2097.686 
2097.763 
2097.840 
2097.918 
2097.995 
2098.072 
2098.149 
2098.227 
2098.304 
2098.381 
2098.459 
2098.536 
2098.613 
2098.691 
2098.768 
2098.845 
2098.923 
2099.000 
2099.077 
2099.155 
2099.232 
2099.309 
2099.386 
2099.464 
2099.541 
2099.618 
2099.696 
2099.773 
2099.850 
2099.928 
2100.005 
2100.082 
2100.160 
2100.237 
2100.314 
2100.391 
2100.469 
2100.546 
2100.623 
2100.701 
2100.778 
2100.855 
2100.933 
2101.010 
2101.087 
2101.164 
2101.242 
2101.319 
2101.396 
2101.474 
2101.551 
2101.628 
2101.705 
2101.783 
2101.860 
2101.937 
2102.015 
2102.092 
2102.169 
2102.247 
2102.324 
2102.401 
2102.478 
2102.556 
2102.633 
2102.710 
2102.788 
2102.865 
2102.942 
2103.019 
2103.097 
2103.174 
2103.251 
2103.328 
2103.406 
2103.483 
2103.560 
2103.638 
2103.715 
2103.792 
2103.869 
2103.947 
2104.024 
2104.101 
2104.179 
2104.256 
2104.333 
2104.410 
2104.488 
2104.565 
2104.642 
2104.719 
2104.797 
2104.874 
2104.951 
2105.028 
2105.106 
2105.183 
2105.260 
2105.338 
2105.415 
2105.492 
2105.569 
2105.647 
2105.724 
2105.801 
2105.878 
2105.956 
2106.033 
2106.110 
2106.187 
2106.265 
2106.342 
2106.419 
2106.496 
2106.574 
2106.651 
2106.728 
2106.805 
2106.883 
2106.960 
2107.037 
2107.114 
2107.192 
2107.269 
2107.346 
2107.423 
2107.501 
2107.578 
2107.655 
2107.732 
2107.810 
2107.887 
2107.964 
2108.041 
2108.119 
2108.196 
2108.273 
2108.350 
2108.428 
2108.505 
2108.582 
2108.659 
2108.737 
2108.814 
2108.891 
2108.968 
2109.046 
2109.123 
2109.200 
2109.277 
2109.355 
2109.432 
2109.509 
2109.586 
2109.663 
2109.741 
2109.818 
2109.895 
2109.972 
2110.050 
2110.127 
2110.204 
2110.281 
2110.358 
2110.436 
2110.513 
2110.590 
2110.667 
2110.745 
2110.822 
2110.899 
2110.976 
2111.054 
2111.131 
2111.208 
2111.285 
2111.362 
2111.440 
2111.517 
2111.594 
2111.671 
2111.748 
2111.826 
2111.903 
2111.980 
2112.057 
2112.135 
2112.212 
2112.289 
2112.366 
2112.443 
2112.521 
2112.598 
2112.675 
2112.752 
2112.829 
2112.907 
2112.984 
2113.061 
2113.138 
2113.215 
2113.293 
2113.370 
2113.447 
2113.524 
2113.601 
2113.679 
2113.756 
2113.833 
2113.910 
2113.987 
2114.065 
2114.142 
2114.219 
2114.296 
2114.373 
2114.451 
2114.528 
2114.605 
2114.682 
2114.759 
2114.837 
2114.914 
2114.991 
2115.068 
2115.145 
2115.223 
2115.300 
2115.377 
2115.454 
2115.531 
2115.609 
2115.686 
2115.763 
2115.840 
2115.917 
2115.994 
2116.072 
2116.149 
2116.226 
2116.303 
2116.380 
2116.458 
2116.535 
2116.612 
2116.689 
2116.766 
2116.843 
2116.921 
2116.998 
2117.075 
2117.152 
2117.229 
2117.306 
2117.384 
2117.461 
2117.538 
2117.615 
2117.692 
2117.770 
2117.847 
2117.924 
2118.001 
2118.078 
2118.155 
2118.233 
2118.310 
2118.387 
2118.464 
2118.541 
2118.618 
2118.696 
2118.773 
2118.850 
2118.927 
2119.004 
2119.081 
2119.158 
2119.236 
2119.313 
2119.390 
2119.467 
2119.544 
2119.621 
2119.699 
2119.776 
2119.853 
2119.930 
2120.007 
2120.084 
2120.162 
2120.239 
2120.316 
2120.393 
2120.470 
2120.547 
2120.624 
2120.702 
2120.779 
2120.856 
2120.933 
2121.010 
2121.087 
2121.164 
2121.242 
2121.319 
2121.396 
2121.473 
2121.550 
2121.627 
2121.704 
2121.782 
2121.859 
2121.936 
2122.013 
2122.090 
2122.167 
2122.244 
2122.322 
2122.399 
2122.476 
2122.553 
2122.630 
2122.707 
2122.784 
2122.861 
2122.939 
2123.016 
2123.093 
2123.170 
2123.247 
2123.324 
2123.401 
2123.478 
2123.556 
2123.633 
2123.710 
2123.787 
2123.864 
2123.941 
2124.018 
2124.095 
2124.173 
2124.250 
2124.327 
2124.404 
2124.481 
2124.558 
2124.635 
2124.712 
2124.790 
2124.867 
2124.944 
2125.021 
2125.098 
2125.175 
2125.252 
2125.329 
2125.406 
2125.484 
2125.561 
2125.638 
2125.715 
2125.792 
2125.869 
2125.946 
2126.023 
2126.100 
2126.178 
2126.255 
2126.332 
2126.409 
2126.486 
2126.563 
2126.640 
2126.717 
2126.794 
2126.871 
2126.949 
2127.026 
2127.103 
2127.180 
2127.257 
2127.334 
2127.411 
2127.488 
2127.565 
2127.642 
2127.720 
2127.797 
2127.874 
2127.951 
2128.028 
2128.105 
2128.182 
2128.259 
2128.336 
2128.413 
2128.490 
2128.568 
2128.645 
2128.722 
2128.799 
2128.876 
2128.953 
2129.030 
2129.107 
2129.184 
2129.261 
2129.338 
2129.416 
2129.493 
2129.570 
2129.647 
2129.724 
2129.801 
2129.878 
2129.955 
2130.032 
2130.109 
2130.186 
2130.263 
2130.340 
2130.418 
2130.495 
2130.572 
2130.649 
2130.726 
2130.803 
2130.880 
2130.957 
2131.034 
2131.111 
2131.188 
2131.265 
2131.342 
2131.419 
2131.497 
2131.574 
2131.651 
2131.728 
2131.805 
2131.882 
2131.959 
2132.036 
2132.113 
2132.190 
2132.267 
2132.344 
2132.421 
2132.498 
2132.575 
2132.652 
2132.729 
2132.807 
2132.884 
2132.961 
2133.038 
2133.115 
2133.192 
2133.269 
2133.346 
2133.423 
2133.500 
2133.577 
2133.654 
2133.731 
2133.808 
2133.885 
2133.962 
2134.039 
2134.116 
2134.193 
2134.270 
2134.348 
2134.425 
2134.502 
2134.579 
2134.656 
2134.733 
2134.810 
2134.887 
2134.964 
2135.041 
2135.118 
2135.195 
2135.272 
2135.349 
2135.426 
2135.503 
2135.580 
2135.657 
2135.734 
2135.811 
2135.888 
2135.965 
2136.042 
2136.119 
2136.196 
2136.273 
2136.350 
2136.428 
2136.505 
2136.582 
2136.659 
2136.736 
2136.813 
2136.890 
2136.967 
2137.044 
2137.121 
2137.198 
2137.275 
2137.352 
2137.429 
2137.506 
2137.583 
2137.660 
2137.737 
2137.814 
2137.891 
2137.968 
2138.045 
2138.122 
2138.199 
2138.276 
2138.353 
2138.430 
2138.507 
2138.584 
2138.661 
2138.738 
2138.815 
2138.892 
2138.969 
2139.046 
2139.123 
2139.200 
2139.277 
2139.354 
2139.431 
2139.508 
2139.585 
2139.662 
2139.739 
2139.816 
2139.893 
2139.970 
2140.047 
2140.124 
2140.201 
2140.278 
2140.355 
2140.432 
2140.509 
2140.586 
2140.663 
2140.740 
2140.817 
2140.894 
2140.971 
2141.048 
2141.125 
2141.202 
2141.279 
2141.356 
2141.433 
2141.510 
2141.587 
2141.664 
2141.741 
2141.818 
2141.895 
2141.972 
2142.049 
2142.126 
2142.203 
2142.280 
2142.357 
2142.434 
2142.511 
2142.588 
2142.665 
2142.742 
2142.819 
2142.896 
2142.973 
2143.050 
2143.127 
2143.204 
2143.281 
2143.358 
2143.435 
2143.512 
2143.589 
2143.666 
2143.743 
2143.820 
2143.897 
2143.974 
2144.050 
2144.127 
2144.204 
2144.281 
2144.358 
2144.435 
2144.512 
2144.589 
2144.666 
2144.743 
2144.820 
2144.897 
2144.974 
2145.051 
2145.128 
2145.205 
2145.282 
2145.359 
2145.436 
2145.513 
2145.590 
2145.667 
2145.744 
2145.821 
2145.898 
2145.975 
2146.052 
2146.128 
2146.205 
2146.282 
2146.359 
2146.436 
2146.513 
2146.590 
2146.667 
2146.744 
2146.821 
2146.898 
2146.975 
2147.052 
2147.129 
2147.206 
2147.283 
2147.360 
2147.437 
2147.514 
2147.590 
2147.667 
2147.744 
2147.821 
2147.898 
2147.975 
2148.052 
2148.129 
2148.206 
2148.283 
2148.360 
2148.437 
2148.514 
2148.591 
2148.668 
2148.745 
2148.822 
2148.898 
2148.975 
2149.052 
2149.129 
2149.206 
2149.283 
2149.360 
2149.437 
2149.514 
2149.591 
2149.668 
2149.745 
2149.822 
2149.899 
2149.975 
2150.052 
2150.129 
2150.206 
2150.283 
2150.360 
2150.437 
2150.514 
2150.591 
2150.668 
2150.745 
2150.822 
2150.899 
2150.975 
2151.052 
2151.129 
2151.206 
2151.283 
2151.360 
2151.437 
2151.514 
2151.591 
2151.668 
2151.745 
2151.822 
2151.898 
2151.975 
2152.052 
2152.129 
2152.206 
2152.283 
2152.360 
2152.437 
2152.514 
2152.591 
2152.668 
2152.744 
2152.821 
2152.898 
2152.975 
2153.052 
2153.129 
2153.206 
2153.283 
2153.360 
2153.437 
2153.513 
2153.590 
2153.667 
2153.744 
2153.821 
2153.898 
2153.975 
2154.052 
2154.129 
2154.205 
2154.282 
2154.359 
2154.436 
2154.513 
2154.590 
2154.667 
2154.744 
2154.821 
2154.897 
2154.974 
2155.051 
2155.128 
2155.205 
2155.282 
2155.359 
2155.436 
2155.513 
2155.589 
2155.666 
2155.743 
2155.820 
2155.897 
2155.974 
2156.051 
2156.128 
2156.205 
2156.281 
2156.358 
2156.435 
2156.512 
2156.589 
2156.666 
2156.743 
2156.820 
2156.896 
2156.973 
2157.050 
2157.127 
2157.204 
2157.281 
2157.358 
2157.434 
2157.511 
2157.588 
2157.665 
2157.742 
2157.819 
2157.896 
2157.973 
2158.049 
2158.126 
2158.203 
2158.280 
2158.357 
2158.434 
2158.511 
2158.587 
2158.664 
2158.741 
2158.818 
2158.895 
2158.972 
2159.049 
2159.125 
2159.202 
2159.279 
2159.356 
2159.433 
2159.510 
2159.587 
2159.663 
2159.740 
2159.817 
2159.894 
2159.971 
2160.048 
2160.125 
2160.201 
2160.278 
2160.355 
2160.432 
2160.509 
2160.586 
2160.662 
2160.739 
2160.816 
2160.893 
2160.970 
2161.047 
2161.124 
2161.200 
2161.277 
2161.354 
2161.431 
2161.508 
2161.585 
2161.661 
2161.738 
2161.815 
2161.892 
2161.969 
2162.046 
2162.122 
2162.199 
2162.276 
2162.353 
2162.430 
2162.507 
2162.583 
2162.660 
2162.737 
2162.814 
2162.891 
2162.968 
2163.044 
2163.121 
2163.198 
2163.275 
2163.352 
2163.428 
2163.505 
2163.582 
2163.659 
2163.736 
2163.813 
2163.889 
2163.966 
2164.043 
2164.120 
2164.197 
2164.273 
2164.350 
2164.427 
2164.504 
2164.581 
2164.658 
2164.734 
2164.811 
2164.888 
2164.965 
2165.042 
2165.118 
2165.195 
2165.272 
2165.349 
2165.426 
2165.502 
2165.579 
2165.656 
2165.733 
2165.810 
2165.887 
2165.963 
2166.040 
2166.117 
2166.194 
2166.271 
2166.347 
2166.424 
2166.501 
2166.578 
2166.655 
2166.731 
2166.808 
2166.885 
2166.962 
2167.039 
2167.115 
2167.192 
2167.269 
2167.346 
2167.422 
2167.499 
2167.576 
2167.653 
2167.730 
2167.806 
2167.883 
2167.960 
2168.037 
2168.114 
2168.190 
2168.267 
2168.344 
2168.421 
2168.498 
2168.574 
2168.651 
2168.728 
2168.805 
2168.881 
2168.958 
2169.035 
2169.112 
2169.189 
2169.265 
2169.342 
2169.419 
2169.496 
2169.572 
2169.649 
2169.726 
2169.803 
2169.880 
2169.956 
2170.033 
2170.110 
2170.187 
2170.263 
2170.340 
2170.417 
2170.494 
2170.570 
2170.647 
2170.724 
2170.801 
2170.878 
2170.954 
2171.031 
2171.108 
2171.185 
2171.261 
2171.338 
2171.415 
2171.492 
2171.568 
2171.645 
2171.722 
2171.799 
2171.875 
2171.952 
2172.029 
2172.106 
2172.182 
2172.259 
2172.336 
2172.413 
2172.490 
2172.566 
2172.643 
2172.720 
2172.797 
2172.873 
2172.950 
2173.027 
2173.104 
2173.180 
2173.257 
2173.334 
2173.411 
2173.487 
2173.564 
2173.641 
2173.718 
2173.794 
2173.871 
2173.948 
2174.024 
2174.101 
2174.178 
2174.255 
2174.331 
2174.408 
2174.485 
2174.562 
2174.638 
2174.715 
2174.792 
2174.869 
2174.945 
2175.022 
2175.099 
2175.176 
2175.252 
2175.329 
2175.406 
2175.482 
2175.559 
2175.636 
2175.713 
2175.789 
2175.866 
2175.943 
2176.020 
2176.096 
2176.173 
2176.250 
2176.326 
2176.403 
2176.480 
2176.557 
2176.633 
2176.710 
2176.787 
2176.864 
2176.940 
2177.017 
2177.094 
2177.170 
2177.247 
2177.324 
2177.401 
2177.477 
2177.554 
2177.631 
2177.707 
2177.784 
2177.861 
2177.938 
2178.014 
2178.091 
2178.168 
2178.244 
2178.321 
2178.398 
2178.475 
2178.551 
2178.628 
2178.705 
2178.781 
2178.858 
2178.935 
2179.012 
2179.088 
2179.165 
2179.242 
2179.318 
2179.395 
2179.472 
2179.548 
2179.625 
2179.702 
2179.779 
2179.855 
2179.932 
2180.009 
2180.085 
2180.162 
2180.239 
2180.315 
2180.392 
2180.469 
2180.545 
2180.622 
2180.699 
2180.776 
2180.852 
2180.929 
2181.006 
2181.082 
2181.159 
2181.236 
2181.312 
2181.389 
2181.466 
2181.542 
2181.619 
2181.696 
2181.772 
2181.849 
2181.926 
2182.003 
2182.079 
2182.156 
2182.233 
2182.309 
2182.386 
2182.463 
2182.539 
2182.616 
2182.693 
2182.769 
2182.846 
2182.923 
2182.999 
2183.076 
2183.153 
2183.229 
2183.306 
2183.383 
2183.459 
2183.536 
2183.613 
2183.689 
2183.766 
2183.843 
2183.919 
2183.996 
2184.073 
2184.149 
2184.226 
2184.303 
2184.379 
2184.456 
2184.533 
2184.609 
2184.686 
2184.763 
2184.839 
2184.916 
2184.993 
2185.069 
2185.146 
2185.223 
2185.299 
2185.376 
2185.453 
2185.529 
2185.606 
2185.683 
2185.759 
2185.836 
2185.913 
2185.989 
2186.066 
2186.142 
2186.219 
2186.296 
2186.372 
2186.449 
2186.526 
2186.602 
2186.679 
2186.756 
2186.832 
2186.909 
2186.986 
2187.062 
2187.139 
2187.216 
2187.292 
2187.369 
2187.445 
2187.522 
2187.599 
2187.675 
2187.752 
2187.829 
2187.905 
2187.982 
2188.059 
2188.135 
2188.212 
2188.288 
2188.365 
2188.442 
2188.518 
2188.595 
2188.672 
2188.748 
2188.825 
2188.901 
2188.978 
2189.055 
2189.131 
2189.208 
2189.285 
2189.361 
2189.438 
2189.515 
2189.591 
2189.668 
2189.744 
2189.821 
2189.898 
2189.974 
2190.051 
2190.127 
2190.204 
2190.281 
2190.357 
2190.434 
2190.511 
2190.587 
2190.664 
2190.740 
2190.817 
2190.894 
2190.970 
2191.047 
2191.123 
2191.200 
2191.277 
2191.353 
2191.430 
2191.507 
2191.583 
2191.660 
2191.736 
2191.813 
2191.890 
2191.966 
2192.043 
2192.119 
2192.196 
2192.273 
2192.349 
2192.426 
2192.502 
2192.579 
2192.656 
2192.732 
2192.809 
2192.885 
2192.962 
2193.039 
2193.115 
2193.192 
2193.268 
2193.345 
2193.422 
2193.498 
2193.575 
2193.651 
2193.728 
2193.805 
2193.881 
2193.958 
2194.034 
2194.111 
2194.187 
2194.264 
2194.341 
2194.417 
2194.494 
2194.570 
2194.647 
2194.724 
2194.800 
2194.877 
2194.953 
2195.030 
2195.107 
2195.183 
2195.260 
2195.336 
2195.413 
2195.489 
2195.566 
2195.643 
2195.719 
2195.796 
2195.872 
2195.949 
2196.025 
2196.102 
2196.179 
2196.255 
2196.332 
2196.408 
2196.485 
2196.561 
2196.638 
2196.715 
2196.791 
2196.868 
2196.944 
2197.021 
2197.097 
2197.174 
2197.251 
2197.327 
2197.404 
2197.480 
2197.557 
2197.633 
2197.710 
2197.787 
2197.863 
2197.940 
2198.016 
2198.093 
2198.169 
2198.246 
2198.322 
2198.399 
2198.476 
2198.552 
2198.629 
2198.705 
2198.782 
2198.858 
2198.935 
2199.011 
2199.088 
2199.165 
2199.241 
2199.318 
2199.394 
2199.471 
2199.547 
2199.624 
2199.700 
2199.777 
2199.853 
2199.930 
2200.007 
2200.083 
2200.160 
2200.236 
2200.313 
2200.389 
2200.466 
2200.542 
2200.619 
2200.695 
2200.772 
2200.848 
2200.925 
2201.002 
2201.078 
2201.155 
2201.231 
2201.308 
2201.384 
2201.461 
2201.537 
2201.614 
2201.690 
2201.767 
2201.843 
2201.920 
2201.996 
2202.073 
2202.150 
2202.226 
2202.303 
2202.379 
2202.456 
2202.532 
2202.609 
2202.685 
2202.762 
2202.838 
2202.915 
2202.991 
2203.068 
2203.144 
2203.221 
2203.297 
2203.374 
2203.450 
2203.527 
2203.603 
2203.680 
2203.756 
2203.833 
2203.910 
2203.986 
2204.063 
2204.139 
2204.216 
2204.292 
2204.369 
2204.445 
2204.522 
2204.598 
2204.675 
2204.751 
2204.828 
2204.904 
2204.981 
2205.057 
2205.134 
2205.210 
2205.287 
2205.363 
2205.440 
2205.516 
2205.593 
2205.669 
2205.746 
2205.822 
2205.899 
2205.975 
2206.052 
2206.128 
2206.205 
2206.281 
2206.358 
2206.434 
2206.511 
2206.587 
2206.664 
2206.740 
2206.817 
2206.893 
2206.970 
2207.046 
2207.123 
2207.199 
2207.276 
2207.352 
2207.429 
2207.505 
2207.582 
2207.658 
2207.734 
2207.811 
2207.887 
2207.964 
2208.040 
2208.117 
2208.193 
2208.270 
2208.346 
2208.423 
2208.499 
2208.576 
2208.652 
2208.729 
2208.805 
2208.882 
2208.958 
2209.035 
2209.111 
2209.188 
2209.264 
2209.341 
2209.417 
2209.493 
2209.570 
2209.646 
2209.723 
2209.799 
2209.876 
2209.952 
2210.029 
2210.105 
2210.182 
2210.258 
2210.335 
2210.411 
2210.488 
2210.564 
2210.641 
2210.717 
2210.793 
2210.870 
2210.946 
2211.023 
2211.099 
2211.176 
2211.252 
2211.329 
2211.405 
2211.482 
2211.558 
2211.634 
2211.711 
2211.787 
2211.864 
2211.940 
2212.017 
2212.093 
2212.170 
2212.246 
2212.323 
2212.399 
2212.475 
2212.552 
2212.628 
2212.705 
2212.781 
2212.858 
2212.934 
2213.011 
2213.087 
2213.163 
2213.240 
2213.316 
2213.393 
2213.469 
2213.546 
2213.622 
2213.699 
2213.775 
2213.851 
2213.928 
2214.004 
2214.081 
2214.157 
2214.234 
2214.310 
2214.386 
2214.463 
2214.539 
2214.616 
2214.692 
2214.769 
2214.845 
2214.922 
2214.998 
2215.074 
2215.151 
2215.227 
2215.304 
2215.380 
2215.456 
2215.533 
2215.609 
2215.686 
2215.762 
2215.839 
2215.915 
2215.991 
2216.068 
2216.144 
2216.221 
2216.297 
2216.374 
2216.450 
2216.526 
2216.603 
2216.679 
2216.756 
2216.832 
2216.908 
2216.985 
2217.061 
2217.138 
2217.214 
2217.291 
2217.367 
2217.443 
2217.520 
2217.596 
2217.673 
2217.749 
2217.825 
2217.902 
2217.978 
2218.055 
2218.131 
2218.207 
2218.284 
2218.360 
2218.437 
2218.513 
2218.589 
2218.666 
2218.742 
2218.819 
2218.895 
2218.971 
2219.048 
2219.124 
2219.201 
2219.277 
2219.353 
2219.430 
2219.506 
2219.583 
2219.659 
2219.735 
2219.812 
2219.888 
2219.965 
2220.041 
2220.117 
2220.194 
2220.270 
2220.347 
2220.423 
2220.499 
2220.576 
2220.652 
2220.728 
2220.805 
2220.881 
2220.958 
2221.034 
2221.110 
2221.187 
2221.263 
2221.340 
2221.416 
2221.492 
2221.569 
2221.645 
2221.721 
2221.798 
2221.874 
2221.951 
2222.027 
2222.103 
2222.180 
2222.256 
2222.332 
2222.409 
2222.485 
2222.562 
2222.638 
2222.714 
2222.791 
2222.867 
2222.943 
2223.020 
2223.096 
2223.173 
2223.249 
2223.325 
2223.402 
2223.478 
2223.554 
2223.631 
2223.707 
2223.783 
2223.860 
2223.936 
2224.013 
2224.089 
2224.165 
2224.242 
2224.318 
2224.394 
2224.471 
2224.547 
2224.623 
2224.700 
2224.776 
2224.852 
2224.929 
2225.005 
2225.082 
2225.158 
2225.234 
2225.311 
2225.387 
2225.463 
2225.540 
2225.616 
2225.692 
2225.769 
2225.845 
2225.921 
2225.998 
2226.074 
2226.150 
2226.227 
2226.303 
2226.379 
2226.456 
2226.532 
2226.608 
2226.685 
2226.761 
2226.837 
2226.914 
2226.990 
2227.066 
2227.143 
2227.219 
2227.295 
2227.372 
2227.448 
2227.524 
2227.601 
2227.677 
2227.753 
2227.830 
2227.906 
2227.982 
2228.059 
2228.135 
2228.211 
2228.288 
2228.364 
2228.440 
2228.517 
2228.593 
2228.669 
2228.746 
2228.822 
2228.898 
2228.975 
2229.051 
2229.127 
2229.204 
2229.280 
2229.356 
2229.433 
2229.509 
2229.585 
2229.662 
2229.738 
2229.814 
2229.891 
2229.967 
2230.043 
2230.119 
2230.196 
2230.272 
2230.348 
2230.425 
2230.501 
2230.577 
2230.654 
2230.730 
2230.806 
2230.883 
2230.959 
2231.035 
2231.112 
2231.188 
2231.264 
2231.340 
2231.417 
2231.493 
2231.569 
2231.646 
2231.722 
2231.798 
2231.875 
2231.951 
2232.027 
2232.103 
2232.180 
2232.256 
2232.332 
2232.409 
2232.485 
2232.561 
2232.638 
2232.714 
2232.790 
2232.866 
2232.943 
2233.019 
2233.095 
2233.172 
2233.248 
2233.324 
2233.400 
2233.477 
2233.553 
2233.629 
2233.706 
2233.782 
2233.858 
2233.934 
2234.011 
2234.087 
2234.163 
2234.240 
2234.316 
2234.392 
2234.468 
2234.545 
2234.621 
2234.697 
2234.774 
2234.850 
2234.926 
2235.002 
2235.079 
2235.155 
2235.231 
2235.307 
2235.384 
2235.460 
2235.536 
2235.613 
2235.689 
2235.765 
2235.841 
2235.918 
2235.994 
2236.070 
2236.146 
2236.223 
2236.299 
2236.375 
2236.451 
2236.528 
2236.604 
2236.680 
2236.757 
2236.833 
2236.909 
2236.985 
2237.062 
2237.138 
2237.214 
2237.290 
2237.367 
2237.443 
2237.519 
2237.595 
2237.672 
2237.748 
2237.824 
2237.900 
2237.977 
2238.053 
2238.129 
2238.205 
2238.282 
2238.358 
2238.434 
2238.510 
2238.587 
2238.663 
2238.739 
2238.815 
2238.892 
2238.968 
2239.044 
2239.120 
2239.197 
2239.273 
2239.349 
2239.425 
2239.502 
2239.578 
2239.654 
2239.730 
2239.807 
2239.883 
2239.959 
2240.035 
2240.112 
2240.188 
2240.264 
2240.340 
2240.416 
2240.493 
2240.569 
2240.645 
2240.721 
2240.798 
2240.874 
2240.950 
2241.026 
2241.103 
2241.179 
2241.255 
2241.331 
2241.407 
2241.484 
2241.560 
2241.636 
2241.712 
2241.789 
2241.865 
2241.941 
2242.017 
2242.094 
2242.170 
2242.246 
2242.322 
2242.398 
2242.475 
2242.551 
2242.627 
2242.703 
2242.779 
2242.856 
2242.932 
2243.008 
2243.084 
2243.161 
2243.237 
2243.313 
2243.389 
2243.465 
2243.542 
2243.618 
2243.694 
2243.770 
2243.846 
2243.923 
2243.999 
2244.075 
2244.151 
2244.227 
2244.304 
2244.380 
2244.456 
2244.532 
2244.609 
2244.685 
2244.761 
2244.837 
2244.913 
2244.990 
2245.066 
2245.142 
2245.218 
2245.294 
2245.370 
2245.447 
2245.523 
2245.599 
2245.675 
2245.751 
2245.828 
2245.904 
2245.980 
2246.056 
2246.132 
2246.209 
2246.285 
2246.361 
2246.437 
2246.513 
2246.590 
2246.666 
2246.742 
2246.818 
2246.894 
2246.970 
2247.047 
2247.123 
2247.199 
2247.275 
2247.351 
2247.428 
2247.504 
2247.580 
2247.656 
2247.732 
2247.808 
2247.885 
2247.961 
2248.037 
2248.113 
2248.189 
2248.266 
2248.342 
2248.418 
2248.494 
2248.570 
2248.646 
2248.723 
2248.799 
2248.875 
2248.951 
2249.027 
2249.103 
2249.180 
2249.256 
2249.332 
2249.408 
2249.484 
2249.560 
2249.637 
2249.713 
2249.789 
2249.865 
2249.941 
2250.017 
2250.094 
2250.170 
2250.246 
2250.322 
2250.398 
2250.474 
2250.551 
2250.627 
2250.703 
2250.779 
2250.855 
2250.931 
2251.007 
2251.084 
2251.160 
2251.236 
2251.312 
2251.388 
2251.464 
2251.541 
2251.617 
2251.693 
2251.769 
2251.845 
2251.921 
2251.997 
2252.074 
2252.150 
2252.226 
2252.302 
2252.378 
2252.454 
2252.530 
2252.607 
2252.683 
2252.759 
2252.835 
2252.911 
2252.987 
2253.063 
2253.140 
2253.216 
2253.292 
2253.368 
2253.444 
2253.520 
2253.596 
2253.672 
2253.749 
2253.825 
2253.901 
2253.977 
2254.053 
2254.129 
2254.205 
2254.281 
2254.358 
2254.434 
2254.510 
2254.586 
2254.662 
2254.738 
2254.814 
2254.890 
2254.967 
2255.043 
2255.119 
2255.195 
2255.271 
2255.347 
2255.423 
2255.499 
2255.576 
2255.652 
2255.728 
2255.804 
2255.880 
2255.956 
2256.032 
2256.108 
2256.185 
2256.261 
2256.337 
2256.413 
2256.489 
2256.565 
2256.641 
2256.717 
2256.793 
2256.870 
2256.946 
2257.022 
2257.098 
2257.174 
2257.250 
2257.326 
2257.402 
2257.478 
2257.554 
2257.631 
2257.707 
2257.783 
2257.859 
2257.935 
2258.011 
2258.087 
2258.163 
2258.239 
2258.315 
2258.392 
2258.468 
2258.544 
2258.620 
2258.696 
2258.772 
2258.848 
2258.924 
2259.000 
2259.076 
2259.152 
2259.229 
2259.305 
2259.381 
2259.457 
2259.533 
2259.609 
2259.685 
2259.761 
2259.837 
2259.913 
2259.989 
2260.066 
2260.142 
2260.218 
2260.294 
2260.370 
2260.446 
2260.522 
2260.598 
2260.674 
2260.750 
2260.826 
2260.902 
2260.979 
2261.055 
2261.131 
2261.207 
2261.283 
2261.359 
2261.435 
2261.511 
2261.587 
2261.663 
2261.739 
2261.815 
2261.891 
2261.967 
2262.044 
2262.120 
2262.196 
2262.272 
2262.348 
2262.424 
2262.500 
2262.576 
2262.652 
2262.728 
2262.804 
2262.880 
2262.956 
2263.032 
2263.108 
2263.184 
2263.261 
2263.337 
2263.413 
2263.489 
2263.565 
2263.641 
2263.717 
2263.793 
2263.869 
2263.945 
2264.021 
2264.097 
2264.173 
2264.249 
2264.325 
2264.401 
2264.477 
2264.553 
2264.630 
2264.706 
2264.782 
2264.858 
2264.934 
2265.010 
2265.086 
2265.162 
2265.238 
2265.314 
2265.390 
2265.466 
2265.542 
2265.618 
2265.694 
2265.770 
2265.846 
2265.922 
2265.998 
2266.074 
2266.150 
2266.226 
2266.302 
2266.378 
2266.455 
2266.531 
2266.607 
2266.683 
2266.759 
2266.835 
2266.911 
2266.987 
2267.063 
2267.139 
2267.215 
2267.291 
2267.367 
2267.443 
2267.519 
2267.595 
2267.671 
2267.747 
2267.823 
2267.899 
2267.975 
2268.051 
2268.127 
2268.203 
2268.279 
2268.355 
2268.431 
2268.507 
2268.583 
2268.659 
2268.735 
2268.811 
2268.887 
2268.963 
2269.039 
2269.115 
2269.191 
2269.267 
2269.343 
2269.419 
2269.495 
2269.571 
2269.647 
2269.723 
2269.799 
2269.875 
2269.951 
2270.027 
2270.103 
2270.179 
2270.255 
2270.332 
2270.408 
2270.484 
2270.560 
2270.636 
2270.712 
2270.788 
2270.864 
2270.940 
2271.016 
2271.092 
2271.168 
2271.244 
2271.320 
2271.396 
2271.472 
2271.548 
2271.623 
2271.699 
2271.775 
2271.851 
2271.927 
2272.003 
2272.079 
2272.155 
2272.231 
2272.307 
2272.383 
2272.459 
2272.535 
2272.611 
2272.687 
2272.763 
2272.839 
2272.915 
2272.991 
2273.067 
2273.143 
2273.219 
2273.295 
2273.371 
2273.447 
2273.523 
2273.599 
2273.675 
2273.751 
2273.827 
2273.903 
2273.979 
2274.055 
2274.131 
2274.207 
2274.283 
2274.359 
2274.435 
2274.511 
2274.587 
2274.663 
2274.739 
2274.815 
2274.891 
2274.967 
2275.043 
2275.119 
2275.195 
2275.271 
2275.347 
2275.423 
2275.498 
2275.574 
2275.650 
2275.726 
2275.802 
2275.878 
2275.954 
2276.030 
2276.106 
2276.182 
2276.258 
2276.334 
2276.410 
2276.486 
2276.562 
2276.638 
2276.714 
2276.790 
2276.866 
2276.942 
2277.018 
2277.094 
2277.170 
2277.246 
2277.321 
2277.397 
2277.473 
2277.549 
2277.625 
2277.701 
2277.777 
2277.853 
2277.929 
2278.005 
2278.081 
2278.157 
2278.233 
2278.309 
2278.385 
2278.461 
2278.537 
2278.613 
2278.688 
2278.764 
2278.840 
2278.916 
2278.992 
2279.068 
2279.144 
2279.220 
2279.296 
2279.372 
2279.448 
2279.524 
2279.600 
2279.676 
2279.752 
2279.828 
2279.903 
2279.979 
2280.055 
2280.131 
2280.207 
2280.283 
2280.359 
2280.435 
2280.511 
2280.587 
2280.663 
2280.739 
2280.815 
2280.891 
2280.966 
2281.042 
2281.118 
2281.194 
2281.270 
2281.346 
2281.422 
2281.498 
2281.574 
2281.650 
2281.726 
2281.802 
2281.877 
2281.953 
2282.029 
2282.105 
2282.181 
2282.257 
2282.333 
2282.409 
2282.485 
2282.561 
2282.637 
2282.712 
2282.788 
2282.864 
2282.940 
2283.016 
2283.092 
2283.168 
2283.244 
2283.320 
2283.396 
2283.472 
2283.547 
2283.623 
2283.699 
2283.775 
2283.851 
2283.927 
2284.003 
2284.079 
2284.155 
2284.231 
2284.306 
2284.382 
2284.458 
2284.534 
2284.610 
2284.686 
2284.762 
2284.838 
2284.914 
2284.990 
2285.065 
2285.141 
2285.217 
2285.293 
2285.369 
2285.445 
2285.521 
2285.597 
2285.673 
2285.748 
2285.824 
2285.900 
2285.976 
2286.052 
2286.128 
2286.204 
2286.280 
2286.355 
2286.431 
2286.507 
2286.583 
2286.659 
2286.735 
2286.811 
2286.887 
2286.963 
2287.038 
2287.114 
2287.190 
2287.266 
2287.342 
2287.418 
2287.494 
2287.569 
2287.645 
2287.721 
2287.797 
2287.873 
2287.949 
2288.025 
2288.101 
2288.176 
2288.252 
2288.328 
2288.404 
2288.480 
2288.556 
2288.632 
2288.708 
2288.783 
2288.859 
2288.935 
2289.011 
2289.087 
2289.163 
2289.239 
2289.314 
2289.390 
2289.466 
2289.542 
2289.618 
2289.694 
2289.770 
2289.845 
2289.921 
2289.997 
2290.073 
2290.149 
2290.225 
2290.301 
2290.376 
2290.452 
2290.528 
2290.604 
2290.680 
2290.756 
2290.831 
2290.907 
2290.983 
2291.059 
2291.135 
2291.211 
2291.287 
2291.362 
2291.438 
2291.514 
2291.590 
2291.666 
2291.742 
2291.817 
2291.893 
2291.969 
2292.045 
2292.121 
2292.197 
2292.272 
2292.348 
2292.424 
2292.500 
2292.576 
2292.652 
2292.727 
2292.803 
2292.879 
2292.955 
2293.031 
2293.107 
2293.182 
2293.258 
2293.334 
2293.410 
2293.486 
2293.562 
2293.637 
2293.713 
2293.789 
2293.865 
2293.941 
2294.016 
2294.092 
2294.168 
2294.244 
2294.320 
2294.396 
2294.471 
2294.547 
2294.623 
2294.699 
2294.775 
2294.850 
2294.926 
2295.002 
2295.078 
2295.154 
2295.230 
2295.305 
2295.381 
2295.457 
2295.533 
2295.609 
2295.684 
2295.760 
2295.836 
2295.912 
2295.988 
2296.063 
2296.139 
2296.215 
2296.291 
2296.367 
2296.443 
2296.518 
2296.594 
2296.670 
2296.746 
2296.822 
2296.897 
2296.973 
2297.049 
2297.125 
2297.201 
2297.276 
2297.352 
2297.428 
2297.504 
2297.579 
2297.655 
2297.731 
2297.807 
2297.883 
2297.958 
2298.034 
2298.110 
2298.186 
2298.262 
2298.337 
2298.413 
2298.489 
2298.565 
2298.641 
2298.716 
2298.792 
2298.868 
2298.944 
2299.019 
2299.095 
2299.171 
2299.247 
2299.323 
2299.398 
2299.474 
2299.550 
2299.626 
2299.702 
2299.777 
2299.853 
2299.929 
2300.005 
2300.080 
2300.156 
2300.232 
2300.308 
2300.383 
2300.459 
2300.535 
2300.611 
2300.687 
2300.762 
2300.838 
2300.914 
2300.990 
2301.065 
2301.141 
2301.217 
2301.293 
2301.368 
2301.444 
2301.520 
2301.596 
2301.672 
2301.747 
2301.823 
2301.899 
2301.975 
2302.050 
2302.126 
2302.202 
2302.278 
2302.353 
2302.429 
2302.505 
2302.581 
2302.656 
2302.732 
2302.808 
2302.884 
2302.959 
2303.035 
2303.111 
2303.187 
2303.262 
2303.338 
2303.414 
2303.490 
2303.565 
2303.641 
2303.717 
2303.793 
2303.868 
2303.944 
2304.020 
2304.096 
2304.171 
2304.247 
2304.323 
2304.399 
2304.474 
2304.550 
2304.626 
2304.702 
2304.777 
2304.853 
2304.929 
2305.005 
2305.080 
2305.156 
2305.232 
2305.307 
2305.383 
2305.459 
2305.535 
2305.610 
2305.686 
2305.762 
2305.838 
2305.913 
2305.989 
2306.065 
2306.141 
2306.216 
2306.292 
2306.368 
2306.443 
2306.519 
2306.595 
2306.671 
2306.746 
2306.822 
2306.898 
2306.974 
2307.049 
2307.125 
2307.201 
2307.276 
2307.352 
2307.428 
2307.504 
2307.579 
2307.655 
2307.731 
2307.806 
2307.882 
2307.958 
2308.034 
2308.109 
2308.185 
2308.261 
2308.336 
2308.412 
2308.488 
2308.564 
2308.639 
2308.715 
2308.791 
2308.866 
2308.942 
2309.018 
2309.094 
2309.169 
2309.245 
2309.321 
2309.396 
2309.472 
2309.548 
2309.623 
2309.699 
2309.775 
2309.851 
2309.926 
2310.002 
2310.078 
2310.153 
2310.229 
2310.305 
2310.380 
2310.456 
2310.532 
2310.608 
2310.683 
2310.759 
2310.835 
2310.910 
2310.986 
2311.062 
2311.137 
2311.213 
2311.289 
2311.364 
2311.440 
2311.516 
2311.591 
2311.667 
2311.743 
2311.819 
2311.894 
2311.970 
2312.046 
2312.121 
2312.197 
2312.273 
2312.348 
2312.424 
2312.500 
2312.575 
2312.651 
2312.727 
2312.802 
2312.878 
2312.954 
2313.029 
2313.105 
2313.181 
2313.256 
2313.332 
2313.408 
2313.483 
2313.559 
2313.635 
2313.710 
2313.786 
2313.862 
2313.937 
2314.013 
2314.089 
2314.164 
2314.240 
2314.316 
2314.391 
2314.467 
2314.543 
2314.618 
2314.694 
2314.770 
2314.845 
2314.921 
2314.997 
2315.072 
2315.148 
2315.224 
2315.299 
2315.375 
2315.451 
2315.526 
2315.602 
2315.678 
2315.753 
2315.829 
2315.905 
2315.980 
2316.056 
2316.132 
2316.207 
2316.283 
2316.359 
2316.434 
2316.510 
2316.586 
2316.661 
2316.737 
2316.812 
2316.888 
2316.964 
2317.039 
2317.115 
2317.191 
2317.266 
2317.342 
2317.418 
2317.493 
2317.569 
2317.645 
2317.720 
2317.796 
2317.871 
2317.947 
2318.023 
2318.098 
2318.174 
2318.250 
2318.325 
2318.401 
2318.477 
2318.552 
2318.628 
2318.703 
2318.779 
2318.855 
2318.930 
2319.006 
2319.082 
2319.157 
2319.233 
2319.308 
2319.384 
2319.460 
2319.535 
2319.611 
2319.687 
2319.762 
2319.838 
2319.913 
2319.989 
2320.065 
2320.140 
2320.216 
2320.292 
2320.367 
2320.443 
2320.518 
2320.594 
2320.670 
2320.745 
2320.821 
2320.896 
2320.972 
2321.048 
2321.123 
2321.199 
2321.275 
2321.350 
2321.426 
2321.501 
2321.577 
2321.653 
2321.728 
2321.804 
2321.879 
2321.955 
2322.031 
2322.106 
2322.182 
2322.257 
2322.333 
2322.409 
2322.484 
2322.560 
2322.635 
2322.711 
2322.787 
2322.862 
2322.938 
2323.013 
2323.089 
2323.165 
2323.240 
2323.316 
2323.391 
2323.467 
2323.543 
2323.618 
2323.694 
2323.769 
2323.845 
2323.921 
2323.996 
2324.072 
2324.147 
2324.223 
2324.299 
2324.374 
2324.450 
2324.525 
2324.601 
2324.676 
2324.752 
2324.828 
2324.903 
2324.979 
2325.054 
2325.130 
2325.206 
2325.281 
2325.357 
2325.432 
2325.508 
2325.583 
2325.659 
2325.735 
2325.810 
2325.886 
2325.961 
2326.037 
2326.113 
2326.188 
2326.264 
2326.339 
2326.415 
2326.490 
2326.566 
2326.642 
2326.717 
2326.793 
2326.868 
2326.944 
2327.019 
2327.095 
2327.170 
2327.246 
2327.322 
2327.397 
2327.473 
2327.548 
2327.624 
2327.699 
2327.775 
2327.851 
2327.926 
2328.002 
2328.077 
2328.153 
2328.228 
2328.304 
2328.379 
2328.455 
2328.531 
2328.606 
2328.682 
2328.757 
2328.833 
2328.908 
2328.984 
2329.059 
2329.135 
2329.211 
2329.286 
2329.362 
2329.437 
2329.513 
2329.588 
2329.664 
2329.739 
2329.815 
2329.890 
2329.966 
2330.042 
2330.117 
2330.193 
2330.268 
2330.344 
2330.419 
2330.495 
2330.570 
2330.646 
2330.721 
2330.797 
2330.873 
2330.948 
2331.024 
2331.099 
2331.175 
2331.250 
2331.326 
2331.401 
2331.477 
2331.552 
2331.628 
2331.703 
2331.779 
2331.854 
2331.930 
2332.006 
2332.081 
2332.157 
2332.232 
2332.308 
2332.383 
2332.459 
2332.534 
2332.610 
2332.685 
2332.761 
2332.836 
2332.912 
2332.987 
2333.063 
2333.138 
2333.214 
2333.289 
2333.365 
2333.440 
2333.516 
2333.591 
2333.667 
2333.743 
2333.818 
2333.894 
2333.969 
2334.045 
2334.120 
2334.196 
2334.271 
2334.347 
2334.422 
2334.498 
2334.573 
2334.649 
2334.724 
2334.800 
2334.875 
2334.951 
2335.026 
2335.102 
2335.177 
2335.253 
2335.328 
2335.404 
2335.479 
2335.555 
2335.630 
2335.706 
2335.781 
2335.857 
2335.932 
2336.008 
2336.083 
2336.159 
2336.234 
2336.310 
2336.385 
2336.461 
2336.536 
2336.612 
2336.687 
2336.763 
2336.838 
2336.914 
2336.989 
2337.065 
2337.140 
2337.216 
2337.291 
2337.367 
2337.442 
2337.518 
2337.593 
2337.668 
2337.744 
2337.819 
2337.895 
2337.970 
2338.046 
2338.121 
2338.197 
2338.272 
2338.348 
2338.423 
2338.499 
2338.574 
2338.650 
2338.725 
2338.801 
2338.876 
2338.952 
2339.027 
2339.103 
2339.178 
2339.254 
2339.329 
2339.404 
2339.480 
2339.555 
2339.631 
2339.706 
2339.782 
2339.857 
2339.933 
2340.008 
2340.084 
2340.159 
2340.235 
2340.310 
2340.386 
2340.461 
2340.536 
2340.612 
2340.687 
2340.763 
2340.838 
2340.914 
2340.989 
2341.065 
2341.140 
2341.216 
2341.291 
2341.367 
2341.442 
2341.517 
2341.593 
2341.668 
2341.744 
2341.819 
2341.895 
2341.970 
2342.046 
2342.121 
2342.197 
2342.272 
2342.347 
2342.423 
2342.498 
2342.574 
2342.649 
2342.725 
2342.800 
2342.876 
2342.951 
2343.026 
2343.102 
2343.177 
2343.253 
2343.328 
2343.404 
2343.479 
2343.555 
2343.630 
2343.705 
2343.781 
2343.856 
2343.932 
2344.007 
2344.083 
2344.158 
2344.233 
2344.309 
2344.384 
2344.460 
2344.535 
2344.611 
2344.686 
2344.761 
2344.837 
2344.912 
2344.988 
2345.063 
2345.139 
2345.214 
2345.289 
2345.365 
2345.440 
2345.516 
2345.591 
2345.667 
2345.742 
2345.817 
2345.893 
2345.968 
2346.044 
2346.119 
2346.195 
2346.270 
2346.345 
2346.421 
2346.496 
2346.572 
2346.647 
2346.722 
2346.798 
2346.873 
2346.949 
2347.024 
2347.100 
2347.175 
2347.250 
2347.326 
2347.401 
2347.477 
2347.552 
2347.627 
2347.703 
2347.778 
2347.854 
2347.929 
2348.004 
2348.080 
2348.155 
2348.231 
2348.306 
2348.381 
2348.457 
2348.532 
2348.608 
2348.683 
2348.758 
2348.834 
2348.909 
2348.985 
2349.060 
2349.135 
2349.211 
2349.286 
2349.362 
2349.437 
2349.512 
2349.588 
2349.663 
2349.739 
2349.814 
2349.889 
2349.965 
2350.040 
2350.115 
2350.191 
2350.266 
2350.342 
2350.417 
2350.492 
2350.568 
2350.643 
2350.719 
2350.794 
2350.869 
2350.945 
2351.020 
2351.095 
2351.171 
2351.246 
2351.322 
2351.397 
2351.472 
2351.548 
2351.623 
2351.699 
2351.774 
2351.849 
2351.925 
2352.000 
2352.075 
2352.151 
2352.226 
2352.302 
2352.377 
2352.452 
2352.528 
2352.603 
2352.678 
2352.754 
2352.829 
2352.904 
2352.980 
2353.055 
2353.131 
2353.206 
2353.281 
2353.357 
2353.432 
2353.507 
2353.583 
2353.658 
2353.733 
2353.809 
2353.884 
2353.960 
2354.035 
2354.110 
2354.186 
2354.261 
2354.336 
2354.412 
2354.487 
2354.562 
2354.638 
2354.713 
2354.788 
2354.864 
2354.939 
2355.014 
2355.090 
2355.165 
2355.241 
2355.316 
2355.391 
2355.467 
2355.542 
2355.617 
2355.693 
2355.768 
2355.843 
2355.919 
2355.994 
2356.069 
2356.145 
2356.220 
2356.295 
2356.371 
2356.446 
2356.521 
2356.597 
2356.672 
2356.747 
2356.823 
2356.898 
2356.973 
2357.049 
2357.124 
2357.199 
2357.275 
2357.350 
2357.425 
2357.501 
2357.576 
2357.651 
2357.727 
2357.802 
2357.877 
2357.953 
2358.028 
2358.103 
2358.179 
2358.254 
2358.329 
2358.405 
2358.480 
2358.555 
2358.631 
2358.706 
2358.781 
2358.857 
2358.932 
2359.007 
2359.083 
2359.158 
2359.233 
2359.308 
2359.384 
2359.459 
2359.534 
2359.610 
2359.685 
2359.760 
2359.836 
2359.911 
2359.986 
2360.062 
2360.137 
2360.212 
2360.288 
2360.363 
2360.438 
2360.513 
2360.589 
2360.664 
2360.739 
2360.815 
2360.890 
2360.965 
2361.041 
2361.116 
2361.191 
2361.267 
2361.342 
2361.417 
2361.492 
2361.568 
2361.643 
2361.718 
2361.794 
2361.869 
2361.944 
2362.020 
2362.095 
2362.170 
2362.245 
2362.321 
2362.396 
2362.471 
2362.547 
2362.622 
2362.697 
2362.772 
2362.848 
2362.923 
2362.998 
2363.074 
2363.149 
2363.224 
2363.299 
2363.375 
2363.450 
2363.525 
2363.601 
2363.676 
2363.751 
2363.826 
2363.902 
2363.977 
2364.052 
2364.128 
2364.203 
2364.278 
2364.353 
2364.429 
2364.504 
2364.579 
2364.655 
2364.730 
2364.805 
2364.880 
2364.956 
2365.031 
2365.106 
2365.181 
2365.257 
2365.332 
2365.407 
2365.482 
2365.558 
2365.633 
2365.708 
2365.784 
2365.859 
2365.934 
2366.009 
2366.085 
2366.160 
2366.235 
2366.310 
2366.386 
2366.461 
2366.536 
2366.611 
2366.687 
2366.762 
2366.837 
2366.912 
2366.988 
2367.063 
2367.138 
2367.214 
2367.289 
2367.364 
2367.439 
2367.515 
2367.590 
2367.665 
2367.740 
2367.816 
2367.891 
2367.966 
2368.041 
2368.117 
2368.192 
2368.267 
2368.342 
2368.418 
2368.493 
2368.568 
2368.643 
2368.719 
2368.794 
2368.869 
2368.944 
2369.019 
2369.095 
2369.170 
2369.245 
2369.320 
2369.396 
2369.471 
2369.546 
2369.621 
2369.697 
2369.772 
2369.847 
2369.922 
2369.998 
2370.073 
2370.148 
2370.223 
2370.298 
2370.374 
2370.449 
2370.524 
2370.599 
2370.675 
2370.750 
2370.825 
2370.900 
2370.976 
2371.051 
2371.126 
2371.201 
2371.276 
2371.352 
2371.427 
2371.502 
2371.577 
2371.653 
2371.728 
2371.803 
2371.878 
2371.953 
2372.029 
2372.104 
2372.179 
2372.254 
2372.330 
2372.405 
2372.480 
2372.555 
2372.630 
2372.706 
2372.781 
2372.856 
2372.931 
2373.006 
2373.082 
2373.157 
2373.232 
2373.307 
2373.382 
2373.458 
2373.533 
2373.608 
2373.683 
2373.759 
2373.834 
2373.909 
2373.984 
2374.059 
2374.135 
2374.210 
2374.285 
2374.360 
2374.435 
2374.511 
2374.586 
2374.661 
2374.736 
2374.811 
2374.887 
2374.962 
2375.037 
2375.112 
2375.187 
2375.262 
2375.338 
2375.413 
2375.488 
2375.563 
2375.638 
2375.714 
2375.789 
2375.864 
2375.939 
2376.014 
2376.090 
2376.165 
2376.240 
2376.315 
2376.390 
2376.465 
2376.541 
2376.616 
2376.691 
2376.766 
2376.841 
2376.917 
2376.992 
2377.067 
2377.142 
2377.217 
2377.292 
2377.368 
2377.443 
2377.518 
2377.593 
2377.668 
2377.744 
2377.819 
2377.894 
2377.969 
2378.044 
2378.119 
2378.195 
2378.270 
2378.345 
2378.420 
2378.495 
2378.570 
2378.646 
2378.721 
2378.796 
2378.871 
2378.946 
2379.021 
2379.097 
2379.172 
2379.247 
2379.322 
2379.397 
2379.472 
2379.548 
2379.623 
2379.698 
2379.773 
2379.848 
2379.923 
2379.998 
2380.074 
2380.149 
2380.224 
2380.299 
2380.374 
2380.449 
2380.525 
2380.600 
2380.675 
2380.750 
2380.825 
2380.900 
2380.975 
2381.051 
2381.126 
2381.201 
2381.276 
2381.351 
2381.426 
2381.501 
2381.577 
2381.652 
2381.727 
2381.802 
2381.877 
2381.952 
2382.027 
2382.103 
2382.178 
2382.253 
2382.328 
2382.403 
2382.478 
2382.553 
2382.629 
2382.704 
2382.779 
2382.854 
2382.929 
2383.004 
2383.079 
2383.155 
2383.230 
2383.305 
2383.380 
2383.455 
2383.530 
2383.605 
2383.680 
2383.756 
2383.831 
2383.906 
2383.981 
2384.056 
2384.131 
2384.206 
2384.281 
2384.357 
2384.432 
2384.507 
2384.582 
2384.657 
2384.732 
2384.807 
2384.882 
2384.957 
2385.033 
2385.108 
2385.183 
2385.258 
2385.333 
2385.408 
2385.483 
2385.558 
2385.634 
2385.709 
2385.784 
2385.859 
2385.934 
2386.009 
2386.084 
2386.159 
2386.234 
2386.309 
2386.385 
2386.460 
2386.535 
2386.610 
2386.685 
2386.760 
2386.835 
2386.910 
2386.985 
2387.061 
2387.136 
2387.211 
2387.286 
2387.361 
2387.436 
2387.511 
2387.586 
2387.661 
2387.736 
2387.812 
2387.887 
2387.962 
2388.037 
2388.112 
2388.187 
2388.262 
2388.337 
2388.412 
2388.487 
2388.562 
2388.638 
2388.713 
2388.788 
2388.863 
2388.938 
2389.013 
2389.088 
2389.163 
2389.238 
2389.313 
2389.388 
2389.463 
2389.539 
2389.614 
2389.689 
2389.764 
2389.839 
2389.914 
2389.989 
2390.064 
2390.139 
2390.214 
2390.289 
2390.364 
2390.439 
2390.515 
2390.590 
2390.665 
2390.740 
2390.815 
2390.890 
2390.965 
2391.040 
2391.115 
2391.190 
2391.265 
2391.340 
2391.415 
2391.490 
2391.566 
2391.641 
2391.716 
2391.791 
2391.866 
2391.941 
2392.016 
2392.091 
2392.166 
2392.241 
2392.316 
2392.391 
2392.466 
2392.541 
2392.616 
2392.691 
2392.767 
2392.842 
2392.917 
2392.992 
2393.067 
2393.142 
2393.217 
2393.292 
2393.367 
2393.442 
2393.517 
2393.592 
2393.667 
2393.742 
2393.817 
2393.892 
2393.967 
2394.042 
2394.117 
2394.192 
2394.268 
2394.343 
2394.418 
2394.493 
2394.568 
2394.643 
2394.718 
2394.793 
2394.868 
2394.943 
2395.018 
2395.093 
2395.168 
2395.243 
2395.318 
2395.393 
2395.468 
2395.543 
2395.618 
2395.693 
2395.768 
2395.843 
2395.918 
2395.993 
2396.068 
2396.143 
2396.218 
2396.294 
2396.369 
2396.444 
2396.519 
2396.594 
2396.669 
2396.744 
2396.819 
2396.894 
2396.969 
2397.044 
2397.119 
2397.194 
2397.269 
2397.344 
2397.419 
2397.494 
2397.569 
2397.644 
2397.719 
2397.794 
2397.869 
2397.944 
2398.019 
2398.094 
2398.169 
2398.244 
2398.319 
2398.394 
2398.469 
2398.544 
2398.619 
2398.694 
2398.769 
2398.844 
2398.919 
2398.994 
2399.069 
2399.144 
2399.219 
2399.294 
2399.369 
2399.444 
2399.519 
2399.594 
2399.669 
2399.744 
2399.819 
2399.894 
2399.969 
