# Wavelength table for hrs,echa,25
2203.000 
2203.025 
2203.050 
2203.074 
2203.099 
2203.124 
2203.149 
2203.174 
2203.198 
2203.223 
2203.248 
2203.273 
2203.298 
2203.322 
2203.347 
2203.372 
2203.397 
2203.421 
2203.446 
2203.471 
2203.496 
2203.521 
2203.545 
2203.570 
2203.595 
2203.620 
2203.645 
2203.669 
2203.694 
2203.719 
2203.744 
2203.768 
2203.793 
2203.818 
2203.843 
2203.868 
2203.892 
2203.917 
2203.942 
2203.967 
2203.991 
2204.016 
2204.041 
2204.066 
2204.090 
2204.115 
2204.140 
2204.165 
2204.189 
2204.214 
2204.239 
2204.264 
2204.289 
2204.313 
2204.338 
2204.363 
2204.388 
2204.412 
2204.437 
2204.462 
2204.487 
2204.511 
2204.536 
2204.561 
2204.586 
2204.610 
2204.635 
2204.660 
2204.685 
2204.709 
2204.734 
2204.759 
2204.784 
2204.808 
2204.833 
2204.858 
2204.882 
2204.907 
2204.932 
2204.957 
2204.981 
2205.006 
2205.031 
2205.056 
2205.080 
2205.105 
2205.130 
2205.155 
2205.179 
2205.204 
2205.229 
2205.253 
2205.278 
2205.303 
2205.328 
2205.352 
2205.377 
2205.402 
2205.427 
2205.451 
2205.476 
2205.501 
2205.525 
2205.550 
2205.575 
2205.600 
2205.624 
2205.649 
2205.674 
2205.698 
2205.723 
2205.748 
2205.773 
2205.797 
2205.822 
2205.847 
2205.871 
2205.896 
2205.921 
2205.946 
2205.970 
2205.995 
2206.020 
2206.044 
2206.069 
2206.094 
2206.118 
2206.143 
2206.168 
2206.193 
2206.217 
2206.242 
2206.267 
2206.291 
2206.316 
2206.341 
2206.365 
2206.390 
2206.415 
2206.439 
2206.464 
2206.489 
2206.514 
2206.538 
2206.563 
2206.588 
2206.612 
2206.637 
2206.662 
2206.686 
2206.711 
2206.736 
2206.760 
2206.785 
2206.810 
2206.834 
2206.859 
2206.884 
2206.908 
2206.933 
2206.958 
2206.982 
2207.007 
2207.032 
2207.056 
2207.081 
2207.106 
2207.130 
2207.155 
2207.180 
2207.204 
2207.229 
2207.254 
2207.278 
2207.303 
2207.328 
2207.352 
2207.377 
2207.402 
2207.426 
2207.451 
2207.476 
2207.500 
2207.525 
2207.550 
2207.574 
2207.599 
2207.624 
2207.648 
2207.673 
2207.698 
2207.722 
2207.747 
2207.771 
2207.796 
2207.821 
2207.845 
2207.870 
2207.895 
2207.919 
2207.944 
2207.969 
2207.993 
2208.018 
2208.043 
2208.067 
2208.092 
2208.116 
2208.141 
2208.166 
2208.190 
2208.215 
2208.240 
2208.264 
2208.289 
2208.313 
2208.338 
2208.363 
2208.387 
2208.412 
2208.437 
2208.461 
2208.486 
2208.510 
2208.535 
2208.560 
2208.584 
2208.609 
2208.634 
2208.658 
2208.683 
2208.707 
2208.732 
2208.757 
2208.781 
2208.806 
2208.830 
2208.855 
2208.880 
2208.904 
2208.929 
2208.954 
2208.978 
2209.003 
2209.027 
2209.052 
2209.077 
2209.101 
2209.126 
2209.150 
2209.175 
2209.200 
2209.224 
2209.249 
2209.273 
2209.298 
2209.323 
2209.347 
2209.372 
2209.396 
2209.421 
2209.446 
2209.470 
2209.495 
2209.519 
2209.544 
2209.568 
2209.593 
2209.618 
2209.642 
2209.667 
2209.691 
2209.716 
2209.741 
2209.765 
2209.790 
2209.814 
2209.839 
2209.863 
2209.888 
2209.913 
2209.937 
2209.962 
2209.986 
2210.011 
2210.035 
2210.060 
2210.085 
2210.109 
2210.134 
2210.158 
2210.183 
2210.207 
2210.232 
2210.257 
2210.281 
2210.306 
2210.330 
2210.355 
2210.379 
2210.404 
2210.429 
2210.453 
2210.478 
2210.502 
2210.527 
2210.551 
2210.576 
2210.600 
2210.625 
2210.650 
2210.674 
2210.699 
2210.723 
2210.748 
2210.772 
2210.797 
2210.821 
2210.846 
2210.870 
2210.895 
2210.920 
2210.944 
2210.969 
2210.993 
2211.018 
2211.042 
2211.067 
2211.091 
2211.116 
2211.140 
2211.165 
2211.189 
2211.214 
2211.239 
2211.263 
2211.288 
2211.312 
2211.337 
2211.361 
2211.386 
2211.410 
2211.435 
2211.459 
2211.484 
2211.508 
2211.533 
2211.557 
2211.582 
2211.606 
2211.631 
2211.655 
2211.680 
2211.705 
2211.729 
2211.754 
2211.778 
2211.803 
2211.827 
2211.852 
2211.876 
2211.901 
2211.925 
2211.950 
2211.974 
2211.999 
2212.023 
2212.048 
2212.072 
2212.097 
2212.121 
2212.146 
2212.170 
2212.195 
2212.219 
2212.244 
2212.268 
2212.293 
2212.317 
2212.342 
2212.366 
2212.391 
2212.415 
2212.440 
2212.464 
2212.489 
2212.513 
2212.538 
2212.562 
2212.587 
2212.611 
2212.636 
2212.660 
2212.685 
2212.709 
2212.734 
2212.758 
2212.782 
2212.807 
2212.831 
2212.856 
2212.880 
2212.905 
2212.929 
2212.954 
2212.978 
2213.003 
2213.027 
2213.052 
2213.076 
2213.101 
2213.125 
2213.150 
2213.174 
2213.199 
2213.223 
2213.248 
2213.272 
2213.296 
2213.321 
2213.345 
2213.370 
2213.394 
2213.419 
2213.443 
2213.468 
2213.492 
2213.517 
2213.541 
2213.566 
2213.590 
2213.614 
2213.639 
2213.663 
2213.688 
2213.712 
2213.737 
2213.761 
2213.786 
2213.810 
2213.834 
2213.859 
2213.883 
2213.908 
2213.932 
2213.957 
2213.981 
2214.006 
2214.030 
2214.054 
2214.079 
2214.103 
2214.128 
2214.152 
2214.177 
2214.201 
2214.226 
2214.250 
2214.274 
2214.299 
2214.323 
2214.348 
2214.372 
2214.397 
2214.421 
2214.445 
2214.470 
2214.494 
2214.519 
2214.543 
2214.568 
2214.592 
2214.616 
2214.641 
2214.665 
2214.690 
2214.714 
2214.738 
2214.763 
2214.787 
2214.812 
2214.836 
2214.861 
2214.885 
2214.909 
2214.934 
2214.958 
2214.983 
2215.007 
2215.031 
2215.056 
2215.080 
2215.105 
2215.129 
2215.153 
2215.178 
2215.202 
2215.227 
2215.251 
2215.275 
2215.300 
2215.324 
2215.349 
2215.373 
2215.397 
2215.422 
2215.446 
2215.471 
2215.495 
2215.519 
2215.544 
2215.568 
2215.593 
2215.617 
2215.641 
2215.666 
2215.690 
2215.715 
2215.739 
2215.763 
2215.788 
2215.812 
2215.836 
2215.861 
2215.885 
2215.910 
2215.934 
2215.958 
2215.983 
2216.007 
2216.032 
2216.056 
2216.080 
2216.105 
2216.129 
2216.153 
2216.178 
2216.202 
2216.227 
2216.251 
2216.275 
2216.300 
2216.324 
2216.348 
2216.373 
2216.397 
2216.421 
2216.446 
2216.470 
2216.495 
2216.519 
2216.543 
2216.568 
2216.592 
2216.616 
2216.641 
2216.665 
2216.689 
2216.714 
2216.738 
2216.762 
2216.787 
2216.811 
2216.835 
2216.860 
2216.884 
2216.909 
2216.933 
2216.957 
2216.982 
2217.006 
2217.030 
2217.055 
2217.079 
2217.103 
2217.128 
2217.152 
2217.176 
2217.201 
2217.225 
2217.249 
2217.274 
2217.298 
2217.322 
2217.347 
2217.371 
2217.395 
2217.420 
2217.444 
2217.468 
2217.493 
2217.517 
2217.541 
2217.566 
2217.590 
2217.614 
2217.639 
2217.663 
2217.687 
2217.712 
2217.736 
2217.760 
2217.784 
2217.809 
2217.833 
2217.857 
2217.882 
2217.906 
2217.930 
2217.955 
2217.979 
2218.003 
2218.028 
2218.052 
2218.076 
2218.101 
2218.125 
2218.149 
2218.173 
2218.198 
2218.222 
2218.246 
2218.271 
2218.295 
2218.319 
2218.344 
2218.368 
2218.392 
2218.416 
2218.441 
2218.465 
2218.489 
2218.514 
2218.538 
2218.562 
2218.587 
2218.611 
2218.635 
2218.659 
2218.684 
2218.708 
2218.732 
2218.757 
2218.781 
2218.805 
2218.829 
2218.854 
2218.878 
2218.902 
2218.927 
2218.951 
2218.975 
2218.999 
2219.024 
2219.048 
2219.072 
2219.096 
2219.121 
2219.145 
2219.169 
2219.194 
2219.218 
2219.242 
2219.266 
2219.291 
2219.315 
2219.339 
2219.363 
2219.388 
2219.412 
2219.436 
2219.461 
2219.485 
2219.509 
2219.533 
2219.558 
2219.582 
2219.606 
2219.630 
2219.655 
2219.679 
2219.703 
2219.727 
2219.752 
2219.776 
2219.800 
2219.824 
2219.849 
2219.873 
2219.897 
2219.921 
2219.946 
2219.970 
2219.994 
2220.018 
2220.043 
2220.067 
2220.091 
2220.115 
2220.140 
2220.164 
2220.188 
2220.212 
2220.237 
2220.261 
2220.285 
2220.309 
2220.333 
2220.358 
2220.382 
2220.406 
2220.430 
2220.455 
2220.479 
2220.503 
2220.527 
2220.552 
2220.576 
2220.600 
2220.624 
2220.648 
2220.673 
2220.697 
2220.721 
2220.745 
2220.770 
2220.794 
2220.818 
2220.842 
2220.866 
2220.891 
2220.915 
2220.939 
2220.963 
2220.987 
2221.012 
2221.036 
2221.060 
2221.084 
2221.109 
2221.133 
2221.157 
2221.181 
2221.205 
2221.230 
2221.254 
2221.278 
2221.302 
2221.326 
2221.351 
2221.375 
2221.399 
2221.423 
2221.447 
2221.472 
2221.496 
2221.520 
2221.544 
2221.568 
2221.593 
2221.617 
2221.641 
2221.665 
2221.689 
2221.713 
2221.738 
2221.762 
2221.786 
2221.810 
2221.834 
2221.859 
2221.883 
2221.907 
2221.931 
2221.955 
2221.979 
2222.004 
2222.028 
2222.052 
2222.076 
2222.100 
2222.125 
2222.149 
2222.173 
2222.197 
2222.221 
2222.245 
2222.270 
2222.294 
2222.318 
2222.342 
2222.366 
2222.390 
2222.415 
2222.439 
2222.463 
2222.487 
2222.511 
2222.535 
2222.560 
2222.584 
2222.608 
2222.632 
2222.656 
2222.680 
2222.705 
2222.729 
2222.753 
2222.777 
2222.801 
2222.825 
2222.849 
2222.874 
2222.898 
2222.922 
2222.946 
2222.970 
2222.994 
2223.018 
2223.043 
2223.067 
2223.091 
2223.115 
2223.139 
2223.163 
2223.187 
2223.212 
2223.236 
2223.260 
2223.284 
2223.308 
2223.332 
2223.356 
2223.381 
2223.405 
2223.429 
2223.453 
2223.477 
2223.501 
2223.525 
2223.549 
2223.574 
2223.598 
2223.622 
2223.646 
2223.670 
2223.694 
2223.718 
2223.742 
2223.767 
2223.791 
2223.815 
2223.839 
2223.863 
2223.887 
2223.911 
2223.935 
2223.960 
2223.984 
2224.008 
2224.032 
2224.056 
2224.080 
2224.104 
2224.128 
2224.152 
2224.177 
2224.201 
2224.225 
2224.249 
2224.273 
2224.297 
2224.321 
2224.345 
2224.369 
2224.393 
2224.418 
2224.442 
2224.466 
2224.490 
2224.514 
2224.538 
2224.562 
2224.586 
2224.610 
2224.634 
2224.658 
2224.683 
2224.707 
2224.731 
2224.755 
2224.779 
2224.803 
2224.827 
2224.851 
2224.875 
2224.899 
2224.923 
2224.948 
2224.972 
2224.996 
2225.020 
2225.044 
2225.068 
2225.092 
2225.116 
2225.140 
2225.164 
2225.188 
2225.212 
2225.236 
2225.260 
2225.285 
2225.309 
2225.333 
2225.357 
2225.381 
2225.405 
2225.429 
2225.453 
2225.477 
2225.501 
2225.525 
2225.549 
2225.573 
2225.597 
2225.621 
2225.646 
2225.670 
2225.694 
2225.718 
2225.742 
2225.766 
2225.790 
2225.814 
2225.838 
2225.862 
2225.886 
2225.910 
2225.934 
2225.958 
2225.982 
2226.006 
2226.030 
2226.054 
2226.078 
2226.102 
2226.127 
2226.151 
2226.175 
2226.199 
2226.223 
2226.247 
2226.271 
2226.295 
2226.319 
2226.343 
2226.367 
2226.391 
2226.415 
2226.439 
2226.463 
2226.487 
2226.511 
2226.535 
2226.559 
2226.583 
2226.607 
2226.631 
2226.655 
2226.679 
2226.703 
2226.727 
2226.751 
2226.775 
2226.799 
2226.823 
2226.847 
2226.871 
2226.895 
2226.919 
2226.943 
2226.967 
2226.991 
2227.015 
2227.040 
2227.064 
2227.088 
2227.112 
2227.136 
2227.160 
2227.184 
2227.208 
2227.232 
2227.256 
2227.280 
2227.304 
2227.328 
2227.352 
2227.376 
2227.400 
2227.424 
2227.448 
2227.472 
2227.496 
2227.520 
2227.544 
2227.568 
2227.592 
2227.616 
2227.640 
2227.664 
2227.688 
2227.712 
2227.735 
2227.759 
2227.783 
2227.807 
2227.831 
2227.855 
2227.879 
2227.903 
2227.927 
2227.951 
2227.975 
2227.999 
2228.023 
2228.047 
2228.071 
2228.095 
2228.119 
2228.143 
2228.167 
2228.191 
2228.215 
2228.239 
2228.263 
2228.287 
2228.311 
2228.335 
2228.359 
2228.383 
2228.407 
2228.431 
2228.455 
2228.479 
2228.503 
2228.527 
2228.551 
2228.575 
2228.599 
2228.622 
2228.646 
2228.670 
2228.694 
2228.718 
2228.742 
2228.766 
2228.790 
2228.814 
2228.838 
2228.862 
2228.886 
2228.910 
2228.934 
2228.958 
2228.982 
2229.006 
2229.030 
2229.054 
2229.078 
2229.102 
2229.125 
2229.149 
2229.173 
2229.197 
2229.221 
2229.245 
2229.269 
2229.293 
2229.317 
2229.341 
2229.365 
2229.389 
2229.413 
2229.437 
2229.461 
2229.484 
2229.508 
2229.532 
2229.556 
2229.580 
2229.604 
2229.628 
2229.652 
2229.676 
2229.700 
2229.724 
2229.748 
2229.772 
2229.795 
2229.819 
2229.843 
2229.867 
2229.891 
2229.915 
2229.939 
2229.963 
2229.987 
2230.011 
2230.035 
2230.059 
2230.082 
2230.106 
2230.130 
2230.154 
2230.178 
2230.202 
2230.226 
2230.250 
2230.274 
2230.298 
2230.322 
2230.345 
2230.369 
2230.393 
2230.417 
2230.441 
2230.465 
2230.489 
2230.513 
2230.537 
2230.560 
2230.584 
2230.608 
2230.632 
2230.656 
2230.680 
2230.704 
2230.728 
2230.752 
2230.776 
2230.799 
2230.823 
2230.847 
2230.871 
2230.895 
2230.919 
2230.943 
2230.967 
2230.990 
2231.014 
2231.038 
2231.062 
2231.086 
2231.110 
2231.134 
2231.158 
2231.181 
2231.205 
2231.229 
2231.253 
2231.277 
2231.301 
2231.325 
2231.349 
2231.372 
2231.396 
2231.420 
2231.444 
2231.468 
2231.492 
2231.516 
2231.539 
2231.563 
2231.587 
2231.611 
2231.635 
2231.659 
2231.683 
2231.706 
2231.730 
2231.754 
2231.778 
2231.802 
2231.826 
2231.850 
2231.873 
2231.897 
2231.921 
2231.945 
2231.969 
2231.993 
2232.017 
2232.040 
2232.064 
2232.088 
2232.112 
2232.136 
2232.160 
2232.183 
2232.207 
2232.231 
2232.255 
2232.279 
2232.303 
2232.326 
2232.350 
2232.374 
2232.398 
2232.422 
2232.446 
2232.469 
2232.493 
2232.517 
2232.541 
2232.565 
2232.589 
2232.612 
2232.636 
2232.660 
2232.684 
2232.708 
2232.731 
2232.755 
2232.779 
2232.803 
2232.827 
2232.851 
2232.874 
2232.898 
2232.922 
2232.946 
2232.970 
2232.993 
2233.017 
2233.041 
2233.065 
2233.089 
2233.113 
2233.136 
2233.160 
2233.184 
2233.208 
2233.232 
2233.255 
2233.279 
2233.303 
2233.327 
2233.351 
2233.374 
2233.398 
2233.422 
2233.446 
2233.470 
2233.493 
2233.517 
2233.541 
2233.565 
2233.589 
2233.612 
2233.636 
2233.660 
2233.684 
2233.707 
2233.731 
2233.755 
2233.779 
2233.803 
2233.826 
2233.850 
2233.874 
2233.898 
2233.922 
2233.945 
2233.969 
2233.993 
2234.017 
2234.040 
2234.064 
2234.088 
2234.112 
2234.136 
2234.159 
2234.183 
2234.207 
2234.231 
2234.254 
2234.278 
2234.302 
2234.326 
2234.349 
2234.373 
2234.397 
2234.421 
2234.444 
2234.468 
2234.492 
2234.516 
2234.540 
2234.563 
2234.587 
2234.611 
2234.635 
2234.658 
2234.682 
2234.706 
2234.730 
2234.753 
2234.777 
2234.801 
2234.825 
2234.848 
2234.872 
2234.896 
2234.920 
2234.943 
2234.967 
2234.991 
2235.015 
2235.038 
2235.062 
2235.086 
2235.110 
2235.133 
2235.157 
2235.181 
2235.204 
2235.228 
2235.252 
2235.276 
2235.299 
2235.323 
2235.347 
2235.371 
2235.394 
2235.418 
2235.442 
2235.466 
2235.489 
2235.513 
2235.537 
2235.560 
2235.584 
2235.608 
2235.632 
2235.655 
2235.679 
2235.703 
2235.727 
2235.750 
2235.774 
2235.798 
2235.821 
2235.845 
2235.869 
2235.893 
2235.916 
2235.940 
2235.964 
2235.987 
2236.011 
2236.035 
2236.059 
2236.082 
2236.106 
2236.130 
2236.153 
2236.177 
2236.201 
2236.224 
2236.248 
2236.272 
2236.296 
2236.319 
2236.343 
2236.367 
2236.390 
2236.414 
2236.438 
2236.461 
2236.485 
2236.509 
2236.533 
2236.556 
2236.580 
2236.604 
2236.627 
2236.651 
2236.675 
2236.698 
2236.722 
2236.746 
2236.769 
2236.793 
2236.817 
2236.840 
2236.864 
2236.888 
2236.912 
2236.935 
2236.959 
2236.983 
2237.006 
2237.030 
2237.054 
2237.077 
2237.101 
2237.125 
2237.148 
2237.172 
2237.196 
2237.219 
2237.243 
2237.267 
2237.290 
2237.314 
2237.338 
2237.361 
2237.385 
2237.409 
2237.432 
2237.456 
2237.480 
2237.503 
2237.527 
2237.551 
2237.574 
2237.598 
2237.622 
2237.645 
2237.669 
2237.692 
2237.716 
2237.740 
2237.763 
2237.787 
2237.811 
2237.834 
2237.858 
2237.882 
2237.905 
2237.929 
2237.953 
2237.976 
2238.000 
2238.024 
2238.047 
2238.071 
2238.094 
2238.118 
2238.142 
2238.165 
2238.189 
2238.213 
2238.236 
2238.260 
2238.284 
2238.307 
2238.331 
2238.354 
2238.378 
2238.402 
2238.425 
2238.449 
2238.473 
2238.496 
2238.520 
2238.543 
2238.567 
2238.591 
2238.614 
2238.638 
2238.662 
2238.685 
2238.709 
2238.732 
2238.756 
2238.780 
2238.803 
2238.827 
2238.851 
2238.874 
2238.898 
2238.921 
2238.945 
2238.969 
2238.992 
2239.016 
2239.039 
2239.063 
2239.087 
2239.110 
2239.134 
2239.157 
2239.181 
2239.205 
2239.228 
2239.252 
2239.275 
2239.299 
2239.323 
2239.346 
2239.370 
2239.393 
2239.417 
2239.441 
2239.464 
2239.488 
2239.511 
2239.535 
2239.559 
2239.582 
2239.606 
2239.629 
2239.653 
2239.677 
2239.700 
2239.724 
2239.747 
2239.771 
2239.794 
2239.818 
2239.842 
2239.865 
2239.889 
2239.912 
2239.936 
2239.960 
2239.983 
2240.007 
2240.030 
2240.054 
2240.077 
2240.101 
2240.125 
2240.148 
2240.172 
2240.195 
2240.219 
2240.242 
2240.266 
2240.290 
2240.313 
2240.337 
2240.360 
2240.384 
2240.407 
2240.431 
2240.454 
2240.478 
2240.502 
2240.525 
2240.549 
2240.572 
2240.596 
2240.619 
2240.643 
2240.666 
2240.690 
2240.714 
2240.737 
2240.761 
2240.784 
2240.808 
2240.831 
2240.855 
2240.878 
2240.902 
2240.925 
2240.949 
2240.973 
2240.996 
2241.020 
2241.043 
2241.067 
2241.090 
2241.114 
2241.137 
2241.161 
2241.184 
2241.208 
2241.231 
2241.255 
2241.279 
2241.302 
2241.326 
2241.349 
2241.373 
2241.396 
2241.420 
2241.443 
2241.467 
2241.490 
2241.514 
2241.537 
2241.561 
2241.584 
2241.608 
2241.631 
2241.655 
2241.678 
2241.702 
2241.725 
2241.749 
2241.773 
2241.796 
2241.820 
2241.843 
2241.867 
2241.890 
2241.914 
2241.937 
2241.961 
2241.984 
2242.008 
2242.031 
2242.055 
2242.078 
2242.102 
2242.125 
2242.149 
2242.172 
2242.196 
2242.219 
2242.243 
2242.266 
2242.290 
2242.313 
2242.337 
2242.360 
2242.384 
2242.407 
2242.431 
2242.454 
2242.478 
2242.501 
2242.525 
2242.548 
2242.572 
2242.595 
2242.619 
2242.642 
2242.665 
2242.689 
2242.712 
2242.736 
2242.759 
2242.783 
2242.806 
2242.830 
2242.853 
2242.877 
2242.900 
2242.924 
2242.947 
2242.971 
2242.994 
2243.018 
2243.041 
2243.065 
2243.088 
2243.112 
2243.135 
2243.158 
2243.182 
2243.205 
2243.229 
2243.252 
2243.276 
2243.299 
2243.323 
2243.346 
2243.370 
2243.393 
2243.417 
2243.440 
2243.463 
2243.487 
2243.510 
2243.534 
2243.557 
2243.581 
2243.604 
2243.628 
2243.651 
2243.675 
2243.698 
2243.721 
2243.745 
2243.768 
2243.792 
2243.815 
2243.839 
2243.862 
2243.886 
2243.909 
2243.932 
2243.956 
2243.979 
2244.003 
2244.026 
2244.050 
2244.073 
2244.097 
2244.120 
2244.143 
2244.167 
2244.190 
2244.214 
2244.237 
2244.261 
2244.284 
2244.307 
2244.331 
2244.354 
2244.378 
2244.401 
2244.425 
2244.448 
2244.471 
2244.495 
2244.518 
2244.542 
2244.565 
2244.589 
2244.612 
2244.635 
2244.659 
2244.682 
2244.706 
2244.729 
2244.752 
2244.776 
2244.799 
2244.823 
2244.846 
2244.869 
2244.893 
2244.916 
2244.940 
2244.963 
2244.987 
2245.010 
2245.033 
2245.057 
2245.080 
2245.104 
2245.127 
2245.150 
2245.174 
2245.197 
2245.221 
2245.244 
2245.267 
2245.291 
2245.314 
2245.337 
2245.361 
2245.384 
2245.408 
2245.431 
2245.454 
2245.478 
2245.501 
2245.525 
2245.548 
2245.571 
2245.595 
2245.618 
2245.642 
2245.665 
2245.688 
2245.712 
2245.735 
2245.758 
2245.782 
2245.805 
2245.829 
2245.852 
2245.875 
2245.899 
2245.922 
2245.945 
2245.969 
2245.992 
2246.016 
2246.039 
2246.062 
2246.086 
2246.109 
2246.132 
2246.156 
2246.179 
2246.202 
2246.226 
2246.249 
2246.273 
2246.296 
2246.319 
2246.343 
2246.366 
2246.389 
2246.413 
2246.436 
2246.459 
2246.483 
2246.506 
2246.529 
2246.553 
2246.576 
2246.600 
2246.623 
2246.646 
2246.670 
2246.693 
2246.716 
2246.740 
2246.763 
2246.786 
2246.810 
2246.833 
2246.856 
2246.880 
2246.903 
2246.926 
2246.950 
2246.973 
2246.996 
2247.020 
2247.043 
2247.066 
2247.090 
2247.113 
2247.136 
2247.160 
2247.183 
2247.206 
2247.230 
2247.253 
2247.276 
2247.300 
2247.323 
2247.346 
2247.370 
2247.393 
2247.416 
2247.440 
2247.463 
2247.486 
2247.510 
2247.533 
2247.556 
2247.580 
2247.603 
2247.626 
2247.649 
2247.673 
2247.696 
2247.719 
2247.743 
2247.766 
2247.789 
2247.813 
2247.836 
2247.859 
2247.883 
2247.906 
2247.929 
2247.952 
2247.976 
2247.999 
2248.022 
2248.046 
2248.069 
2248.092 
2248.116 
2248.139 
2248.162 
2248.185 
2248.209 
2248.232 
2248.255 
2248.279 
2248.302 
2248.325 
2248.349 
2248.372 
2248.395 
2248.418 
2248.442 
2248.465 
2248.488 
2248.512 
2248.535 
2248.558 
2248.581 
2248.605 
2248.628 
2248.651 
2248.674 
2248.698 
2248.721 
2248.744 
2248.768 
2248.791 
2248.814 
2248.837 
2248.861 
2248.884 
2248.907 
2248.931 
2248.954 
2248.977 
2249.000 
2249.024 
2249.047 
2249.070 
2249.093 
2249.117 
2249.140 
2249.163 
2249.186 
2249.210 
2249.233 
2249.256 
2249.279 
2249.303 
2249.326 
2249.349 
2249.372 
2249.396 
2249.419 
2249.442 
2249.465 
2249.489 
2249.512 
2249.535 
2249.558 
2249.582 
2249.605 
2249.628 
2249.651 
2249.675 
2249.698 
2249.721 
2249.744 
2249.768 
2249.791 
2249.814 
2249.837 
2249.861 
2249.884 
2249.907 
2249.930 
2249.954 
2249.977 
2250.000 
2250.023 
2250.047 
2250.070 
2250.093 
2250.116 
2250.139 
2250.163 
2250.186 
2250.209 
2250.232 
2250.256 
2250.279 
2250.302 
2250.325 
2250.348 
2250.372 
2250.395 
2250.418 
2250.441 
2250.465 
2250.488 
2250.511 
2250.534 
2250.557 
2250.581 
2250.604 
2250.627 
2250.650 
2250.673 
2250.697 
2250.720 
2250.743 
2250.766 
2250.790 
2250.813 
2250.836 
2250.859 
2250.882 
2250.906 
2250.929 
2250.952 
2250.975 
2250.998 
2251.022 
2251.045 
2251.068 
2251.091 
2251.114 
2251.138 
2251.161 
2251.184 
2251.207 
2251.230 
2251.253 
2251.277 
2251.300 
2251.323 
2251.346 
2251.369 
2251.393 
2251.416 
2251.439 
2251.462 
2251.485 
2251.509 
2251.532 
2251.555 
2251.578 
2251.601 
2251.624 
2251.648 
2251.671 
2251.694 
2251.717 
2251.740 
2251.763 
2251.787 
2251.810 
2251.833 
2251.856 
2251.879 
2251.902 
2251.926 
2251.949 
2251.972 
2251.995 
2252.018 
2252.041 
2252.065 
2252.088 
2252.111 
2252.134 
2252.157 
2252.180 
2252.204 
2252.227 
2252.250 
2252.273 
2252.296 
2252.319 
2252.342 
2252.366 
2252.389 
2252.412 
2252.435 
2252.458 
2252.481 
2252.505 
2252.528 
2252.551 
2252.574 
2252.597 
2252.620 
2252.643 
2252.667 
2252.690 
2252.713 
2252.736 
2252.759 
2252.782 
2252.805 
2252.829 
2252.852 
2252.875 
2252.898 
2252.921 
2252.944 
2252.967 
2252.990 
2253.014 
2253.037 
2253.060 
2253.083 
2253.106 
2253.129 
2253.152 
2253.175 
2253.199 
2253.222 
2253.245 
2253.268 
2253.291 
2253.314 
2253.337 
2253.360 
2253.384 
2253.407 
2253.430 
2253.453 
2253.476 
2253.499 
2253.522 
2253.545 
2253.568 
2253.592 
2253.615 
2253.638 
2253.661 
2253.684 
2253.707 
2253.730 
2253.753 
2253.776 
2253.799 
2253.823 
2253.846 
2253.869 
2253.892 
2253.915 
2253.938 
2253.961 
2253.984 
2254.007 
2254.030 
2254.054 
2254.077 
2254.100 
2254.123 
2254.146 
2254.169 
2254.192 
2254.215 
2254.238 
2254.261 
2254.284 
2254.308 
2254.331 
2254.354 
2254.377 
2254.400 
2254.423 
2254.446 
2254.469 
2254.492 
2254.515 
2254.538 
2254.561 
2254.584 
2254.608 
2254.631 
2254.654 
2254.677 
2254.700 
2254.723 
2254.746 
2254.769 
2254.792 
2254.815 
2254.838 
2254.861 
2254.884 
2254.907 
2254.930 
2254.954 
2254.977 
2255.000 
2255.023 
2255.046 
2255.069 
2255.092 
2255.115 
2255.138 
2255.161 
2255.184 
2255.207 
2255.230 
2255.253 
2255.276 
2255.299 
2255.322 
2255.345 
2255.369 
2255.392 
2255.415 
2255.438 
2255.461 
2255.484 
2255.507 
2255.530 
2255.553 
2255.576 
2255.599 
2255.622 
2255.645 
2255.668 
2255.691 
2255.714 
2255.737 
2255.760 
2255.783 
2255.806 
2255.829 
2255.852 
2255.875 
2255.898 
2255.921 
2255.944 
2255.967 
2255.990 
2256.014 
2256.037 
2256.060 
2256.083 
2256.106 
2256.129 
2256.152 
2256.175 
2256.198 
2256.221 
2256.244 
2256.267 
2256.290 
2256.313 
2256.336 
2256.359 
2256.382 
2256.405 
2256.428 
2256.451 
2256.474 
2256.497 
2256.520 
2256.543 
2256.566 
2256.589 
2256.612 
2256.635 
2256.658 
2256.681 
2256.704 
2256.727 
2256.750 
2256.773 
2256.796 
2256.819 
2256.842 
2256.865 
2256.888 
2256.911 
2256.934 
2256.957 
2256.980 
2257.003 
2257.026 
2257.049 
2257.072 
2257.095 
2257.118 
2257.141 
2257.164 
2257.187 
2257.210 
2257.233 
2257.256 
2257.279 
2257.302 
2257.325 
2257.348 
2257.371 
2257.394 
2257.417 
2257.439 
2257.462 
2257.485 
2257.508 
2257.531 
2257.554 
2257.577 
2257.600 
2257.623 
2257.646 
2257.669 
2257.692 
2257.715 
2257.738 
2257.761 
2257.784 
2257.807 
2257.830 
2257.853 
2257.876 
2257.899 
2257.922 
2257.945 
2257.968 
2257.991 
2258.014 
2258.037 
2258.060 
2258.082 
2258.105 
2258.128 
2258.151 
2258.174 
2258.197 
2258.220 
2258.243 
2258.266 
2258.289 
2258.312 
2258.335 
2258.358 
2258.381 
2258.404 
2258.427 
2258.450 
2258.473 
2258.495 
2258.518 
2258.541 
2258.564 
2258.587 
2258.610 
2258.633 
2258.656 
2258.679 
2258.702 
2258.725 
2258.748 
2258.771 
2258.794 
2258.817 
2258.839 
2258.862 
2258.885 
2258.908 
2258.931 
2258.954 
2258.977 
2259.000 
2259.023 
2259.046 
2259.069 
2259.092 
2259.115 
2259.137 
2259.160 
2259.183 
2259.206 
2259.229 
2259.252 
2259.275 
2259.298 
2259.321 
2259.344 
2259.367 
2259.389 
2259.412 
2259.435 
2259.458 
2259.481 
2259.504 
2259.527 
2259.550 
2259.573 
2259.596 
2259.619 
2259.641 
2259.664 
2259.687 
2259.710 
2259.733 
2259.756 
2259.779 
2259.802 
2259.825 
2259.847 
2259.870 
2259.893 
2259.916 
2259.939 
2259.962 
2259.985 
2260.008 
2260.031 
2260.053 
2260.076 
2260.099 
2260.122 
2260.145 
2260.168 
2260.191 
2260.214 
2260.236 
2260.259 
2260.282 
2260.305 
2260.328 
2260.351 
2260.374 
2260.397 
2260.419 
2260.442 
2260.465 
2260.488 
2260.511 
2260.534 
2260.557 
2260.580 
2260.602 
2260.625 
2260.648 
2260.671 
2260.694 
2260.717 
2260.740 
2260.762 
2260.785 
2260.808 
2260.831 
2260.854 
2260.877 
2260.900 
2260.922 
2260.945 
2260.968 
2260.991 
2261.014 
2261.037 
2261.060 
2261.082 
2261.105 
2261.128 
2261.151 
2261.174 
2261.197 
2261.219 
2261.242 
2261.265 
2261.288 
2261.311 
2261.334 
2261.356 
2261.379 
2261.402 
2261.425 
2261.448 
2261.471 
2261.494 
2261.516 
2261.539 
2261.562 
2261.585 
2261.608 
2261.630 
2261.653 
2261.676 
2261.699 
2261.722 
2261.745 
2261.767 
2261.790 
2261.813 
2261.836 
2261.859 
2261.882 
2261.904 
2261.927 
2261.950 
2261.973 
2261.996 
2262.018 
2262.041 
2262.064 
2262.087 
2262.110 
2262.133 
2262.155 
2262.178 
2262.201 
2262.224 
2262.247 
2262.269 
2262.292 
2262.315 
2262.338 
2262.361 
2262.383 
2262.406 
2262.429 
2262.452 
2262.475 
2262.497 
2262.520 
2262.543 
2262.566 
2262.589 
2262.611 
2262.634 
2262.657 
2262.680 
2262.703 
2262.725 
2262.748 
2262.771 
2262.794 
2262.816 
2262.839 
2262.862 
2262.885 
2262.908 
2262.930 
2262.953 
2262.976 
2262.999 
2263.022 
2263.044 
2263.067 
2263.090 
2263.113 
2263.135 
2263.158 
2263.181 
2263.204 
2263.227 
2263.249 
2263.272 
2263.295 
2263.318 
2263.340 
2263.363 
2263.386 
2263.409 
2263.431 
2263.454 
2263.477 
2263.500 
2263.522 
2263.545 
2263.568 
2263.591 
2263.614 
2263.636 
2263.659 
2263.682 
2263.705 
2263.727 
2263.750 
2263.773 
2263.796 
2263.818 
2263.841 
2263.864 
2263.887 
2263.909 
2263.932 
2263.955 
2263.978 
2264.000 
2264.023 
2264.046 
2264.069 
2264.091 
2264.114 
2264.137 
2264.160 
2264.182 
2264.205 
2264.228 
2264.250 
2264.273 
2264.296 
2264.319 
2264.341 
2264.364 
2264.387 
2264.410 
2264.432 
2264.455 
2264.478 
2264.501 
2264.523 
2264.546 
2264.569 
2264.591 
2264.614 
2264.637 
2264.660 
2264.682 
2264.705 
2264.728 
2264.750 
2264.773 
2264.796 
2264.819 
2264.841 
2264.864 
2264.887 
2264.909 
2264.932 
2264.955 
2264.978 
2265.000 
2265.023 
2265.046 
2265.068 
2265.091 
2265.114 
2265.137 
2265.159 
2265.182 
2265.205 
2265.227 
2265.250 
2265.273 
2265.295 
2265.318 
2265.341 
2265.364 
2265.386 
2265.409 
2265.432 
2265.454 
2265.477 
2265.500 
2265.522 
2265.545 
2265.568 
2265.591 
2265.613 
2265.636 
2265.659 
2265.681 
2265.704 
2265.727 
2265.749 
2265.772 
2265.795 
2265.817 
2265.840 
2265.863 
2265.885 
2265.908 
2265.931 
2265.953 
2265.976 
2265.999 
2266.021 
2266.044 
2266.067 
2266.089 
2266.112 
2266.135 
2266.157 
2266.180 
2266.203 
2266.225 
2266.248 
2266.271 
2266.293 
2266.316 
2266.339 
2266.361 
2266.384 
2266.407 
2266.429 
2266.452 
2266.475 
2266.497 
2266.520 
2266.543 
2266.565 
2266.588 
2266.611 
2266.633 
2266.656 
2266.679 
2266.701 
2266.724 
2266.747 
2266.769 
2266.792 
2266.815 
2266.837 
2266.860 
2266.882 
2266.905 
2266.928 
2266.950 
2266.973 
2266.996 
2267.018 
2267.041 
2267.064 
2267.086 
2267.109 
2267.132 
2267.154 
2267.177 
2267.199 
2267.222 
2267.245 
2267.267 
2267.290 
2267.313 
2267.335 
2267.358 
2267.380 
2267.403 
2267.426 
2267.448 
2267.471 
2267.494 
2267.516 
2267.539 
2267.561 
2267.584 
2267.607 
2267.629 
2267.652 
2267.675 
2267.697 
2267.720 
2267.742 
2267.765 
2267.788 
2267.810 
2267.833 
2267.855 
2267.878 
2267.901 
2267.923 
2267.946 
2267.968 
2267.991 
2268.014 
2268.036 
2268.059 
2268.081 
2268.104 
2268.127 
2268.149 
2268.172 
2268.194 
2268.217 
2268.240 
2268.262 
2268.285 
2268.307 
2268.330 
2268.353 
2268.375 
2268.398 
2268.420 
2268.443 
2268.466 
2268.488 
2268.511 
2268.533 
2268.556 
2268.578 
2268.601 
2268.624 
2268.646 
2268.669 
2268.691 
2268.714 
2268.737 
2268.759 
2268.782 
2268.804 
2268.827 
2268.849 
2268.872 
2268.895 
2268.917 
2268.940 
2268.962 
2268.985 
2269.007 
2269.030 
2269.053 
2269.075 
2269.098 
2269.120 
2269.143 
2269.165 
2269.188 
2269.210 
2269.233 
2269.256 
2269.278 
2269.301 
2269.323 
2269.346 
2269.368 
2269.391 
2269.414 
2269.436 
2269.459 
2269.481 
2269.504 
2269.526 
2269.549 
2269.571 
2269.594 
2269.616 
2269.639 
2269.662 
2269.684 
2269.707 
2269.729 
2269.752 
2269.774 
2269.797 
2269.819 
2269.842 
2269.864 
2269.887 
2269.909 
2269.932 
2269.955 
2269.977 
2270.000 
2270.022 
2270.045 
2270.067 
2270.090 
2270.112 
2270.135 
2270.157 
2270.180 
2270.202 
2270.225 
2270.247 
2270.270 
2270.292 
2270.315 
2270.338 
2270.360 
2270.383 
2270.405 
2270.428 
2270.450 
2270.473 
2270.495 
2270.518 
2270.540 
2270.563 
2270.585 
2270.608 
2270.630 
2270.653 
2270.675 
2270.698 
2270.720 
2270.743 
2270.765 
2270.788 
2270.810 
2270.833 
2270.855 
2270.878 
2270.900 
2270.923 
2270.945 
2270.968 
2270.990 
2271.013 
2271.035 
2271.058 
2271.080 
2271.103 
2271.125 
2271.148 
2271.170 
2271.193 
2271.215 
2271.238 
2271.260 
2271.283 
2271.305 
2271.328 
2271.350 
2271.373 
2271.395 
2271.418 
2271.440 
2271.463 
2271.485 
2271.508 
2271.530 
2271.552 
2271.575 
2271.597 
2271.620 
2271.642 
2271.665 
2271.687 
2271.710 
2271.732 
2271.755 
2271.777 
2271.800 
2271.822 
2271.845 
2271.867 
2271.890 
2271.912 
2271.934 
2271.957 
2271.979 
2272.002 
2272.024 
2272.047 
2272.069 
2272.092 
2272.114 
2272.137 
2272.159 
2272.182 
2272.204 
2272.226 
2272.249 
2272.271 
2272.294 
2272.316 
2272.339 
2272.361 
2272.384 
2272.406 
2272.429 
2272.451 
2272.473 
2272.496 
2272.518 
2272.541 
2272.563 
2272.586 
2272.608 
2272.630 
2272.653 
2272.675 
2272.698 
2272.720 
2272.743 
2272.765 
2272.788 
2272.810 
2272.832 
2272.855 
2272.877 
2272.900 
2272.922 
2272.945 
2272.967 
2272.989 
2273.012 
2273.034 
2273.057 
2273.079 
2273.102 
2273.124 
2273.146 
2273.169 
2273.191 
2273.214 
2273.236 
2273.258 
2273.281 
2273.303 
2273.326 
2273.348 
2273.371 
2273.393 
2273.415 
2273.438 
2273.460 
2273.483 
2273.505 
2273.527 
2273.550 
2273.572 
2273.595 
2273.617 
2273.639 
2273.662 
2273.684 
2273.707 
2273.729 
2273.751 
2273.774 
2273.796 
2273.819 
2273.841 
2273.863 
2273.886 
2273.908 
2273.931 
2273.953 
2273.975 
2273.998 
2274.020 
2274.043 
2274.065 
2274.087 
2274.110 
2274.132 
2274.155 
2274.177 
2274.199 
2274.222 
2274.244 
2274.266 
2274.289 
2274.311 
2274.334 
2274.356 
2274.378 
2274.401 
2274.423 
2274.445 
2274.468 
2274.490 
2274.513 
2274.535 
2274.557 
2274.580 
2274.602 
2274.624 
2274.647 
2274.669 
2274.692 
2274.714 
2274.736 
2274.759 
2274.781 
2274.803 
2274.826 
2274.848 
2274.870 
2274.893 
2274.915 
2274.937 
2274.960 
2274.982 
2275.005 
2275.027 
2275.049 
2275.072 
2275.094 
2275.116 
2275.139 
2275.161 
2275.183 
2275.206 
2275.228 
2275.250 
2275.273 
2275.295 
2275.317 
2275.340 
2275.362 
2275.384 
2275.407 
2275.429 
2275.451 
2275.474 
2275.496 
2275.518 
2275.541 
2275.563 
2275.585 
2275.608 
2275.630 
2275.652 
2275.675 
2275.697 
2275.719 
2275.742 
2275.764 
2275.786 
2275.809 
2275.831 
2275.853 
2275.876 
2275.898 
2275.920 
2275.943 
2275.965 
2275.987 
2276.010 
2276.032 
2276.054 
2276.077 
2276.099 
2276.121 
2276.144 
2276.166 
2276.188 
2276.211 
2276.233 
2276.255 
2276.277 
2276.300 
2276.322 
2276.344 
2276.367 
2276.389 
2276.411 
2276.434 
2276.456 
2276.478 
2276.500 
2276.523 
2276.545 
2276.567 
2276.590 
2276.612 
2276.634 
2276.657 
2276.679 
2276.701 
2276.723 
2276.746 
2276.768 
2276.790 
2276.813 
2276.835 
2276.857 
2276.879 
2276.902 
2276.924 
2276.946 
2276.969 
2276.991 
2277.013 
2277.035 
2277.058 
2277.080 
2277.102 
2277.125 
2277.147 
2277.169 
2277.191 
2277.214 
2277.236 
2277.258 
2277.281 
2277.303 
2277.325 
2277.347 
2277.370 
2277.392 
2277.414 
2277.436 
2277.459 
2277.481 
2277.503 
2277.525 
2277.548 
2277.570 
2277.592 
2277.615 
2277.637 
2277.659 
2277.681 
2277.704 
2277.726 
2277.748 
2277.770 
2277.793 
2277.815 
2277.837 
2277.859 
2277.882 
2277.904 
2277.926 
2277.948 
2277.971 
2277.993 
2278.015 
2278.037 
2278.060 
2278.082 
2278.104 
2278.126 
2278.149 
2278.171 
2278.193 
2278.215 
2278.237 
2278.260 
2278.282 
2278.304 
2278.326 
2278.349 
2278.371 
2278.393 
2278.415 
2278.438 
2278.460 
2278.482 
2278.504 
2278.527 
2278.549 
2278.571 
2278.593 
2278.615 
2278.638 
2278.660 
2278.682 
2278.704 
2278.727 
2278.749 
2278.771 
2278.793 
2278.815 
2278.838 
2278.860 
2278.882 
2278.904 
2278.926 
2278.949 
2278.971 
2278.993 
2279.015 
2279.038 
2279.060 
2279.082 
2279.104 
2279.126 
2279.149 
2279.171 
2279.193 
2279.215 
2279.237 
2279.260 
2279.282 
2279.304 
2279.326 
2279.348 
2279.371 
2279.393 
2279.415 
2279.437 
2279.459 
2279.482 
2279.504 
2279.526 
2279.548 
2279.570 
2279.593 
2279.615 
2279.637 
2279.659 
2279.681 
2279.703 
2279.726 
2279.748 
2279.770 
2279.792 
2279.814 
2279.837 
2279.859 
2279.881 
2279.903 
2279.925 
2279.947 
2279.970 
2279.992 
2280.014 
2280.036 
2280.058 
2280.081 
2280.103 
2280.125 
2280.147 
2280.169 
2280.191 
2280.214 
2280.236 
2280.258 
2280.280 
2280.302 
2280.324 
2280.347 
2280.369 
2280.391 
2280.413 
2280.435 
2280.457 
2280.479 
2280.502 
2280.524 
2280.546 
2280.568 
2280.590 
2280.612 
2280.635 
2280.657 
2280.679 
2280.701 
2280.723 
2280.745 
2280.767 
2280.790 
2280.812 
2280.834 
2280.856 
2280.878 
2280.900 
2280.922 
2280.945 
2280.967 
2280.989 
2281.011 
2281.033 
2281.055 
2281.077 
2281.100 
2281.122 
2281.144 
2281.166 
2281.188 
2281.210 
2281.232 
2281.254 
2281.277 
2281.299 
2281.321 
2281.343 
2281.365 
2281.387 
2281.409 
2281.431 
2281.454 
2281.476 
2281.498 
2281.520 
2281.542 
2281.564 
2281.586 
2281.608 
2281.631 
2281.653 
2281.675 
2281.697 
2281.719 
2281.741 
2281.763 
2281.785 
2281.807 
2281.830 
2281.852 
2281.874 
2281.896 
2281.918 
2281.940 
2281.962 
2281.984 
2282.006 
2282.029 
2282.051 
2282.073 
2282.095 
2282.117 
2282.139 
2282.161 
2282.183 
2282.205 
2282.227 
2282.249 
2282.272 
2282.294 
2282.316 
2282.338 
2282.360 
2282.382 
2282.404 
2282.426 
2282.448 
2282.470 
2282.492 
2282.515 
2282.537 
2282.559 
2282.581 
2282.603 
2282.625 
2282.647 
2282.669 
2282.691 
2282.713 
2282.735 
2282.757 
2282.779 
2282.802 
2282.824 
2282.846 
2282.868 
2282.890 
2282.912 
2282.934 
2282.956 
2282.978 
2283.000 
2283.022 
2283.044 
2283.066 
2283.088 
2283.111 
2283.133 
2283.155 
2283.177 
2283.199 
2283.221 
2283.243 
2283.265 
2283.287 
2283.309 
2283.331 
2283.353 
2283.375 
2283.397 
2283.419 
2283.441 
2283.463 
2283.485 
2283.507 
2283.530 
2283.552 
2283.574 
2283.596 
2283.618 
2283.640 
2283.662 
2283.684 
2283.706 
2283.728 
2283.750 
2283.772 
2283.794 
2283.816 
2283.838 
2283.860 
2283.882 
2283.904 
2283.926 
2283.948 
2283.970 
2283.992 
2284.014 
2284.036 
2284.058 
2284.080 
2284.102 
2284.125 
2284.147 
2284.169 
2284.191 
2284.213 
2284.235 
2284.257 
2284.279 
2284.301 
2284.323 
2284.345 
2284.367 
2284.389 
2284.411 
2284.433 
2284.455 
2284.477 
2284.499 
2284.521 
2284.543 
2284.565 
2284.587 
2284.609 
2284.631 
2284.653 
2284.675 
2284.697 
2284.719 
2284.741 
2284.763 
2284.785 
2284.807 
2284.829 
2284.851 
2284.873 
2284.895 
2284.917 
2284.939 
2284.961 
2284.983 
2285.005 
2285.027 
2285.049 
2285.071 
2285.093 
2285.115 
2285.137 
2285.159 
2285.181 
2285.203 
2285.225 
2285.247 
2285.269 
2285.291 
2285.313 
2285.335 
2285.357 
2285.379 
2285.401 
2285.423 
2285.445 
2285.467 
2285.489 
2285.511 
2285.532 
2285.554 
2285.576 
2285.598 
2285.620 
2285.642 
2285.664 
2285.686 
2285.708 
2285.730 
2285.752 
2285.774 
2285.796 
2285.818 
2285.840 
2285.862 
2285.884 
2285.906 
2285.928 
2285.950 
2285.972 
2285.994 
2286.016 
2286.038 
2286.060 
2286.082 
2286.104 
2286.125 
2286.147 
2286.169 
2286.191 
2286.213 
2286.235 
2286.257 
2286.279 
2286.301 
2286.323 
2286.345 
2286.367 
2286.389 
2286.411 
2286.433 
2286.455 
2286.477 
2286.499 
2286.520 
2286.542 
2286.564 
2286.586 
2286.608 
2286.630 
2286.652 
2286.674 
2286.696 
2286.718 
2286.740 
2286.762 
2286.784 
2286.806 
2286.828 
2286.849 
2286.871 
2286.893 
2286.915 
2286.937 
2286.959 
2286.981 
2287.003 
2287.025 
2287.047 
2287.069 
2287.091 
2287.113 
2287.134 
2287.156 
2287.178 
2287.200 
2287.222 
2287.244 
2287.266 
2287.288 
2287.310 
2287.332 
2287.354 
2287.375 
2287.397 
2287.419 
2287.441 
2287.463 
2287.485 
2287.507 
2287.529 
2287.551 
2287.573 
2287.594 
2287.616 
2287.638 
2287.660 
2287.682 
2287.704 
2287.726 
2287.748 
2287.770 
2287.792 
2287.813 
2287.835 
2287.857 
2287.879 
2287.901 
2287.923 
2287.945 
2287.967 
2287.989 
2288.010 
2288.032 
2288.054 
2288.076 
2288.098 
2288.120 
2288.142 
2288.164 
2288.185 
2288.207 
2288.229 
2288.251 
2288.273 
2288.295 
2288.317 
2288.339 
2288.360 
2288.382 
2288.404 
2288.426 
2288.448 
2288.470 
2288.492 
2288.514 
2288.535 
2288.557 
2288.579 
2288.601 
2288.623 
2288.645 
2288.667 
2288.688 
2288.710 
2288.732 
2288.754 
2288.776 
2288.798 
2288.820 
2288.841 
2288.863 
2288.885 
2288.907 
2288.929 
2288.951 
2288.973 
2288.994 
2289.016 
2289.038 
2289.060 
2289.082 
2289.104 
2289.125 
2289.147 
2289.169 
2289.191 
2289.213 
2289.235 
2289.256 
2289.278 
2289.300 
2289.322 
2289.344 
2289.366 
2289.387 
2289.409 
2289.431 
2289.453 
2289.475 
2289.497 
2289.518 
2289.540 
2289.562 
2289.584 
2289.606 
2289.628 
2289.649 
2289.671 
2289.693 
2289.715 
2289.737 
2289.759 
2289.780 
2289.802 
2289.824 
2289.846 
2289.868 
2289.889 
2289.911 
2289.933 
2289.955 
2289.977 
2289.998 
2290.020 
2290.042 
2290.064 
2290.086 
2290.108 
2290.129 
2290.151 
2290.173 
2290.195 
2290.217 
2290.238 
2290.260 
2290.282 
2290.304 
2290.326 
2290.347 
2290.369 
2290.391 
2290.413 
2290.435 
2290.456 
2290.478 
2290.500 
2290.522 
2290.543 
2290.565 
2290.587 
2290.609 
2290.631 
2290.652 
2290.674 
2290.696 
2290.718 
2290.740 
2290.761 
2290.783 
2290.805 
2290.827 
2290.848 
2290.870 
2290.892 
2290.914 
2290.936 
2290.957 
2290.979 
2291.001 
2291.023 
2291.044 
2291.066 
2291.088 
2291.110 
2291.132 
2291.153 
2291.175 
2291.197 
2291.219 
2291.240 
2291.262 
2291.284 
2291.306 
2291.327 
2291.349 
2291.371 
2291.393 
2291.414 
2291.436 
2291.458 
2291.480 
2291.501 
2291.523 
2291.545 
2291.567 
2291.589 
2291.610 
2291.632 
2291.654 
2291.676 
2291.697 
2291.719 
2291.741 
2291.763 
2291.784 
2291.806 
2291.828 
2291.849 
2291.871 
2291.893 
2291.915 
2291.936 
2291.958 
2291.980 
2292.002 
2292.023 
2292.045 
2292.067 
2292.089 
2292.110 
2292.132 
2292.154 
2292.176 
2292.197 
2292.219 
2292.241 
2292.262 
2292.284 
2292.306 
2292.328 
2292.349 
2292.371 
2292.393 
2292.415 
2292.436 
2292.458 
2292.480 
2292.501 
2292.523 
2292.545 
2292.567 
2292.588 
2292.610 
2292.632 
2292.653 
2292.675 
2292.697 
2292.719 
2292.740 
2292.762 
2292.784 
2292.805 
2292.827 
2292.849 
2292.870 
2292.892 
2292.914 
2292.936 
2292.957 
2292.979 
