# Wavelength table for hrs,g270m
2200.000 
2200.096 
2200.192 
2200.288 
2200.384 
2200.480 
2200.576 
2200.672 
2200.768 
2200.864 
2200.960 
2201.056 
2201.152 
2201.248 
2201.344 
2201.440 
2201.536 
2201.632 
2201.728 
2201.824 
2201.920 
2202.016 
2202.112 
2202.208 
2202.304 
2202.400 
2202.496 
2202.592 
2202.688 
2202.784 
2202.880 
2202.976 
2203.072 
2203.168 
2203.264 
2203.359 
2203.455 
2203.551 
2203.647 
2203.743 
2203.839 
2203.935 
2204.031 
2204.127 
2204.223 
2204.319 
2204.415 
2204.511 
2204.607 
2204.703 
2204.799 
2204.895 
2204.991 
2205.087 
2205.183 
2205.279 
2205.375 
2205.471 
2205.567 
2205.663 
2205.759 
2205.854 
2205.950 
2206.046 
2206.142 
2206.238 
2206.334 
2206.430 
2206.526 
2206.622 
2206.718 
2206.814 
2206.910 
2207.006 
2207.102 
2207.198 
2207.294 
2207.390 
2207.485 
2207.581 
2207.677 
2207.773 
2207.869 
2207.965 
2208.061 
2208.157 
2208.253 
2208.349 
2208.445 
2208.541 
2208.637 
2208.733 
2208.829 
2208.924 
2209.020 
2209.116 
2209.212 
2209.308 
2209.404 
2209.500 
2209.596 
2209.692 
2209.788 
2209.884 
2209.980 
2210.075 
2210.171 
2210.267 
2210.363 
2210.459 
2210.555 
2210.651 
2210.747 
2210.843 
2210.939 
2211.035 
2211.130 
2211.226 
2211.322 
2211.418 
2211.514 
2211.610 
2211.706 
2211.802 
2211.898 
2211.994 
2212.089 
2212.185 
2212.281 
2212.377 
2212.473 
2212.569 
2212.665 
2212.761 
2212.857 
2212.952 
2213.048 
2213.144 
2213.240 
2213.336 
2213.432 
2213.528 
2213.624 
2213.720 
2213.815 
2213.911 
2214.007 
2214.103 
2214.199 
2214.295 
2214.391 
2214.487 
2214.582 
2214.678 
2214.774 
2214.870 
2214.966 
2215.062 
2215.158 
2215.254 
2215.349 
2215.445 
2215.541 
2215.637 
2215.733 
2215.829 
2215.925 
2216.021 
2216.116 
2216.212 
2216.308 
2216.404 
2216.500 
2216.596 
2216.692 
2216.787 
2216.883 
2216.979 
2217.075 
2217.171 
2217.267 
2217.363 
2217.458 
2217.554 
2217.650 
2217.746 
2217.842 
2217.938 
2218.033 
2218.129 
2218.225 
2218.321 
2218.417 
2218.513 
2218.609 
2218.704 
2218.800 
2218.896 
2218.992 
2219.088 
2219.184 
2219.279 
2219.375 
2219.471 
2219.567 
2219.663 
2219.759 
2219.854 
2219.950 
2220.046 
2220.142 
2220.238 
2220.333 
2220.429 
2220.525 
2220.621 
2220.717 
2220.813 
2220.908 
2221.004 
2221.100 
2221.196 
2221.292 
2221.388 
2221.483 
2221.579 
2221.675 
2221.771 
2221.867 
2221.962 
2222.058 
2222.154 
2222.250 
2222.346 
2222.441 
2222.537 
2222.633 
2222.729 
2222.825 
2222.920 
2223.016 
2223.112 
2223.208 
2223.304 
2223.399 
2223.495 
2223.591 
2223.687 
2223.783 
2223.878 
2223.974 
2224.070 
2224.166 
2224.262 
2224.357 
2224.453 
2224.549 
2224.645 
2224.741 
2224.836 
2224.932 
2225.028 
2225.124 
2225.220 
2225.315 
2225.411 
2225.507 
2225.603 
2225.698 
2225.794 
2225.890 
2225.986 
2226.082 
2226.177 
2226.273 
2226.369 
2226.465 
2226.560 
2226.656 
2226.752 
2226.848 
2226.943 
2227.039 
2227.135 
2227.231 
2227.327 
2227.422 
2227.518 
2227.614 
2227.710 
2227.805 
2227.901 
2227.997 
2228.093 
2228.188 
2228.284 
2228.380 
2228.476 
2228.571 
2228.667 
2228.763 
2228.859 
2228.954 
2229.050 
2229.146 
2229.242 
2229.337 
2229.433 
2229.529 
2229.625 
2229.720 
2229.816 
2229.912 
2230.008 
2230.103 
2230.199 
2230.295 
2230.391 
2230.486 
2230.582 
2230.678 
2230.774 
2230.869 
2230.965 
2231.061 
2231.157 
2231.252 
2231.348 
2231.444 
2231.539 
2231.635 
2231.731 
2231.827 
2231.922 
2232.018 
2232.114 
2232.210 
2232.305 
2232.401 
2232.497 
2232.592 
2232.688 
2232.784 
2232.880 
2232.975 
2233.071 
2233.167 
2233.262 
2233.358 
2233.454 
2233.550 
2233.645 
2233.741 
2233.837 
2233.932 
2234.028 
2234.124 
2234.220 
2234.315 
2234.411 
2234.507 
2234.602 
2234.698 
2234.794 
2234.889 
2234.985 
2235.081 
2235.177 
2235.272 
2235.368 
2235.464 
2235.559 
2235.655 
2235.751 
2235.846 
2235.942 
2236.038 
2236.133 
2236.229 
2236.325 
2236.421 
2236.516 
2236.612 
2236.708 
2236.803 
2236.899 
2236.995 
2237.090 
2237.186 
2237.282 
2237.377 
2237.473 
2237.569 
2237.664 
2237.760 
2237.856 
2237.951 
2238.047 
2238.143 
2238.238 
2238.334 
2238.430 
2238.525 
2238.621 
2238.717 
2238.812 
2238.908 
2239.004 
2239.099 
2239.195 
2239.291 
2239.386 
2239.482 
2239.578 
2239.673 
2239.769 
2239.865 
2239.960 
2240.056 
2240.152 
2240.247 
2240.343 
2240.439 
2240.534 
2240.630 
2240.726 
2240.821 
2240.917 
2241.013 
2241.108 
2241.204 
2241.300 
2241.395 
2241.491 
2241.586 
2241.682 
2241.778 
2241.873 
2241.969 
2242.065 
2242.160 
2242.256 
2242.352 
2242.447 
2242.543 
2242.638 
2242.734 
2242.830 
2242.925 
2243.021 
2243.117 
2243.212 
2243.308 
2243.404 
2243.499 
2243.595 
2243.690 
2243.786 
2243.882 
2243.977 
2244.073 
2244.168 
2244.264 
2244.360 
2244.455 
2244.551 
2244.647 
2244.742 
2244.838 
2244.933 
2245.029 
2245.125 
2245.220 
2245.316 
2245.411 
2245.507 
2245.603 
2245.698 
2245.794 
2245.890 
2245.985 
2246.081 
2246.176 
2246.272 
2246.368 
2246.463 
2246.559 
2246.654 
2246.750 
2246.846 
2246.941 
2247.037 
2247.132 
2247.228 
2247.324 
2247.419 
2247.515 
2247.610 
2247.706 
2247.801 
2247.897 
2247.993 
2248.088 
2248.184 
2248.279 
2248.375 
2248.471 
2248.566 
2248.662 
2248.757 
2248.853 
2248.948 
2249.044 
2249.140 
2249.235 
2249.331 
2249.426 
2249.522 
2249.618 
2249.713 
2249.809 
2249.904 
2250.000 
2250.095 
2250.191 
2250.287 
2250.382 
2250.478 
2250.573 
2250.669 
2250.764 
2250.860 
2250.955 
2251.051 
2251.147 
2251.242 
2251.338 
2251.433 
2251.529 
2251.624 
2251.720 
2251.815 
2251.911 
2252.007 
2252.102 
2252.198 
2252.293 
2252.389 
2252.484 
2252.580 
2252.675 
2252.771 
2252.867 
2252.962 
2253.058 
2253.153 
2253.249 
2253.344 
2253.440 
2253.535 
2253.631 
2253.726 
2253.822 
2253.917 
2254.013 
2254.109 
2254.204 
2254.300 
2254.395 
2254.491 
2254.586 
2254.682 
2254.777 
2254.873 
2254.968 
2255.064 
2255.159 
2255.255 
2255.350 
2255.446 
2255.541 
2255.637 
2255.733 
2255.828 
2255.924 
2256.019 
2256.115 
2256.210 
2256.306 
2256.401 
2256.497 
2256.592 
2256.688 
2256.783 
2256.879 
2256.974 
2257.070 
2257.165 
2257.261 
2257.356 
2257.452 
2257.547 
2257.643 
2257.738 
2257.834 
2257.929 
2258.025 
2258.120 
2258.216 
2258.311 
2258.407 
2258.502 
2258.598 
2258.693 
2258.789 
2258.884 
2258.980 
2259.075 
2259.171 
2259.266 
2259.362 
2259.457 
2259.553 
2259.648 
2259.744 
2259.839 
2259.935 
2260.030 
2260.126 
2260.221 
2260.317 
2260.412 
2260.508 
2260.603 
2260.698 
2260.794 
2260.889 
2260.985 
2261.080 
2261.176 
2261.271 
2261.367 
2261.462 
2261.558 
2261.653 
2261.749 
2261.844 
2261.940 
2262.035 
2262.131 
2262.226 
2262.321 
2262.417 
2262.512 
2262.608 
2262.703 
2262.799 
2262.894 
2262.990 
2263.085 
2263.181 
2263.276 
2263.372 
2263.467 
2263.562 
2263.658 
2263.753 
2263.849 
2263.944 
2264.040 
2264.135 
2264.231 
2264.326 
2264.422 
2264.517 
2264.612 
2264.708 
2264.803 
2264.899 
2264.994 
2265.090 
2265.185 
2265.280 
2265.376 
2265.471 
2265.567 
2265.662 
2265.758 
2265.853 
2265.949 
2266.044 
2266.139 
2266.235 
2266.330 
2266.426 
2266.521 
2266.617 
2266.712 
2266.807 
2266.903 
2266.998 
2267.094 
2267.189 
2267.285 
2267.380 
2267.475 
2267.571 
2267.666 
2267.762 
2267.857 
2267.952 
2268.048 
2268.143 
2268.239 
2268.334 
2268.430 
2268.525 
2268.620 
2268.716 
2268.811 
2268.907 
2269.002 
2269.097 
2269.193 
2269.288 
2269.384 
2269.479 
2269.574 
2269.670 
2269.765 
2269.861 
2269.956 
2270.051 
2270.147 
2270.242 
2270.338 
2270.433 
2270.528 
2270.624 
2270.719 
2270.815 
2270.910 
2271.005 
2271.101 
2271.196 
2271.291 
2271.387 
2271.482 
2271.578 
2271.673 
2271.768 
2271.864 
2271.959 
2272.055 
2272.150 
2272.245 
2272.341 
2272.436 
2272.531 
2272.627 
2272.722 
2272.818 
2272.913 
2273.008 
2273.104 
2273.199 
2273.294 
2273.390 
2273.485 
2273.581 
2273.676 
2273.771 
2273.867 
2273.962 
2274.057 
2274.153 
2274.248 
2274.343 
2274.439 
2274.534 
2274.629 
2274.725 
2274.820 
2274.916 
2275.011 
2275.106 
2275.202 
2275.297 
2275.392 
2275.488 
2275.583 
2275.678 
2275.774 
2275.869 
2275.964 
2276.060 
2276.155 
2276.250 
2276.346 
2276.441 
2276.536 
2276.632 
2276.727 
2276.822 
2276.918 
2277.013 
2277.109 
2277.204 
2277.299 
2277.395 
2277.490 
2277.585 
2277.681 
2277.776 
2277.871 
2277.967 
2278.062 
2278.157 
2278.252 
2278.348 
2278.443 
2278.538 
2278.634 
2278.729 
2278.824 
2278.920 
2279.015 
2279.110 
2279.206 
2279.301 
2279.396 
2279.492 
2279.587 
2279.682 
2279.778 
2279.873 
2279.968 
2280.064 
2280.159 
2280.254 
2280.349 
2280.445 
2280.540 
2280.635 
2280.731 
2280.826 
2280.921 
2281.017 
2281.112 
2281.207 
2281.303 
2281.398 
2281.493 
2281.588 
2281.684 
2281.779 
2281.874 
2281.970 
2282.065 
2282.160 
2282.255 
2282.351 
2282.446 
2282.541 
2282.637 
2282.732 
2282.827 
2282.922 
2283.018 
2283.113 
2283.208 
2283.304 
2283.399 
2283.494 
2283.589 
2283.685 
2283.780 
2283.875 
2283.971 
2284.066 
2284.161 
2284.256 
2284.352 
2284.447 
2284.542 
2284.638 
2284.733 
2284.828 
2284.923 
2285.019 
2285.114 
2285.209 
2285.304 
2285.400 
2285.495 
2285.590 
2285.685 
2285.781 
2285.876 
2285.971 
2286.066 
2286.162 
2286.257 
2286.352 
2286.448 
2286.543 
2286.638 
2286.733 
2286.829 
2286.924 
2287.019 
2287.114 
2287.210 
2287.305 
2287.400 
2287.495 
2287.591 
2287.686 
2287.781 
2287.876 
2287.971 
2288.067 
2288.162 
2288.257 
2288.352 
2288.448 
2288.543 
2288.638 
2288.733 
2288.829 
2288.924 
2289.019 
2289.114 
2289.210 
2289.305 
2289.400 
2289.495 
2289.590 
2289.686 
2289.781 
2289.876 
2289.971 
2290.067 
2290.162 
2290.257 
2290.352 
2290.448 
2290.543 
2290.638 
2290.733 
2290.828 
2290.924 
2291.019 
2291.114 
2291.209 
2291.304 
2291.400 
2291.495 
2291.590 
2291.685 
2291.781 
2291.876 
2291.971 
2292.066 
2292.161 
2292.257 
2292.352 
2292.447 
2292.542 
2292.637 
2292.733 
2292.828 
2292.923 
2293.018 
2293.113 
2293.209 
2293.304 
2293.399 
2293.494 
2293.589 
2293.685 
2293.780 
2293.875 
2293.970 
2294.065 
2294.161 
2294.256 
2294.351 
2294.446 
2294.541 
2294.636 
2294.732 
2294.827 
2294.922 
2295.017 
2295.112 
2295.208 
2295.303 
2295.398 
2295.493 
2295.588 
2295.683 
2295.779 
2295.874 
2295.969 
2296.064 
2296.159 
2296.254 
2296.350 
2296.445 
2296.540 
2296.635 
2296.730 
2296.825 
2296.921 
2297.016 
2297.111 
2297.206 
2297.301 
2297.396 
2297.492 
2297.587 
2297.682 
2297.777 
2297.872 
2297.967 
2298.063 
2298.158 
2298.253 
2298.348 
2298.443 
2298.538 
2298.633 
2298.729 
2298.824 
2298.919 
2299.014 
2299.109 
2299.204 
2299.300 
2299.395 
2299.490 
2299.585 
2299.680 
2299.775 
2299.870 
2299.965 
2300.061 
2300.156 
2300.251 
2300.346 
2300.441 
2300.536 
2300.631 
2300.727 
2300.822 
2300.917 
2301.012 
2301.107 
2301.202 
2301.297 
2301.392 
2301.488 
2301.583 
2301.678 
2301.773 
2301.868 
2301.963 
2302.058 
2302.153 
2302.249 
2302.344 
2302.439 
2302.534 
2302.629 
2302.724 
2302.819 
2302.914 
2303.010 
2303.105 
2303.200 
2303.295 
2303.390 
2303.485 
2303.580 
2303.675 
2303.770 
2303.865 
2303.961 
2304.056 
2304.151 
2304.246 
2304.341 
2304.436 
2304.531 
2304.626 
2304.721 
2304.816 
2304.912 
2305.007 
2305.102 
2305.197 
2305.292 
2305.387 
2305.482 
2305.577 
2305.672 
2305.767 
2305.863 
2305.958 
2306.053 
2306.148 
2306.243 
2306.338 
2306.433 
2306.528 
2306.623 
2306.718 
2306.813 
2306.908 
2307.004 
2307.099 
2307.194 
2307.289 
2307.384 
2307.479 
2307.574 
2307.669 
2307.764 
2307.859 
2307.954 
2308.049 
2308.144 
2308.239 
2308.335 
2308.430 
2308.525 
2308.620 
2308.715 
2308.810 
2308.905 
2309.000 
2309.095 
2309.190 
2309.285 
2309.380 
2309.475 
2309.570 
2309.665 
2309.760 
2309.855 
2309.951 
2310.046 
2310.141 
2310.236 
2310.331 
2310.426 
2310.521 
2310.616 
2310.711 
2310.806 
2310.901 
2310.996 
2311.091 
2311.186 
2311.281 
2311.376 
2311.471 
2311.566 
2311.661 
2311.756 
2311.851 
2311.946 
2312.041 
2312.136 
2312.232 
2312.327 
2312.422 
2312.517 
2312.612 
2312.707 
2312.802 
2312.897 
2312.992 
2313.087 
2313.182 
2313.277 
2313.372 
2313.467 
2313.562 
2313.657 
2313.752 
2313.847 
2313.942 
2314.037 
2314.132 
2314.227 
2314.322 
2314.417 
2314.512 
2314.607 
2314.702 
2314.797 
2314.892 
2314.987 
2315.082 
2315.177 
2315.272 
2315.367 
2315.462 
2315.557 
2315.652 
2315.747 
2315.842 
2315.937 
2316.032 
2316.127 
2316.222 
2316.317 
2316.412 
2316.507 
2316.602 
2316.697 
2316.792 
2316.887 
2316.982 
2317.077 
2317.172 
2317.267 
2317.362 
2317.457 
2317.552 
2317.647 
2317.742 
2317.837 
2317.932 
2318.027 
2318.122 
2318.217 
2318.312 
2318.407 
2318.502 
2318.597 
2318.692 
2318.787 
2318.882 
2318.977 
2319.072 
2319.167 
2319.262 
2319.357 
2319.452 
2319.547 
2319.642 
2319.737 
2319.831 
2319.926 
2320.021 
2320.116 
2320.211 
2320.306 
2320.401 
2320.496 
2320.591 
2320.686 
2320.781 
2320.876 
2320.971 
2321.066 
2321.161 
2321.256 
2321.351 
2321.446 
2321.541 
2321.636 
2321.731 
2321.826 
2321.921 
2322.015 
2322.110 
2322.205 
2322.300 
2322.395 
2322.490 
2322.585 
2322.680 
2322.775 
2322.870 
2322.965 
2323.060 
2323.155 
2323.250 
2323.345 
2323.440 
2323.535 
2323.629 
2323.724 
2323.819 
2323.914 
2324.009 
2324.104 
2324.199 
2324.294 
2324.389 
2324.484 
2324.579 
2324.674 
2324.769 
2324.864 
2324.958 
2325.053 
2325.148 
2325.243 
2325.338 
2325.433 
2325.528 
2325.623 
2325.718 
2325.813 
2325.908 
2326.003 
2326.097 
2326.192 
2326.287 
2326.382 
2326.477 
2326.572 
2326.667 
2326.762 
2326.857 
2326.952 
2327.047 
2327.141 
2327.236 
2327.331 
2327.426 
2327.521 
2327.616 
2327.711 
2327.806 
2327.901 
2327.996 
2328.090 
2328.185 
2328.280 
2328.375 
2328.470 
2328.565 
2328.660 
2328.755 
2328.850 
2328.944 
2329.039 
2329.134 
2329.229 
2329.324 
2329.419 
2329.514 
2329.609 
2329.704 
2329.798 
2329.893 
2329.988 
2330.083 
2330.178 
2330.273 
2330.368 
2330.463 
2330.557 
2330.652 
2330.747 
2330.842 
2330.937 
2331.032 
2331.127 
2331.222 
2331.316 
2331.411 
2331.506 
2331.601 
2331.696 
2331.791 
2331.886 
2331.980 
2332.075 
2332.170 
2332.265 
2332.360 
2332.455 
2332.550 
2332.644 
2332.739 
2332.834 
2332.929 
2333.024 
2333.119 
2333.214 
2333.308 
2333.403 
2333.498 
2333.593 
2333.688 
2333.783 
2333.878 
2333.972 
2334.067 
2334.162 
2334.257 
2334.352 
2334.447 
2334.541 
2334.636 
2334.731 
2334.826 
2334.921 
2335.016 
2335.110 
2335.205 
2335.300 
2335.395 
2335.490 
2335.585 
2335.679 
2335.774 
2335.869 
2335.964 
2336.059 
2336.154 
2336.248 
2336.343 
2336.438 
2336.533 
2336.628 
2336.722 
2336.817 
2336.912 
2337.007 
2337.102 
2337.197 
2337.291 
2337.386 
2337.481 
2337.576 
2337.671 
2337.765 
2337.860 
2337.955 
2338.050 
2338.145 
2338.239 
2338.334 
2338.429 
2338.524 
2338.619 
2338.714 
2338.808 
2338.903 
2338.998 
2339.093 
2339.188 
2339.282 
2339.377 
2339.472 
2339.567 
2339.661 
2339.756 
2339.851 
2339.946 
2340.041 
2340.135 
2340.230 
2340.325 
2340.420 
2340.515 
2340.609 
2340.704 
2340.799 
2340.894 
2340.989 
2341.083 
2341.178 
2341.273 
2341.368 
2341.462 
2341.557 
2341.652 
2341.747 
2341.842 
2341.936 
2342.031 
2342.126 
2342.221 
2342.315 
2342.410 
2342.505 
2342.600 
2342.694 
2342.789 
2342.884 
2342.979 
2343.074 
2343.168 
2343.263 
2343.358 
2343.453 
2343.547 
2343.642 
2343.737 
2343.832 
2343.926 
2344.021 
2344.116 
2344.211 
2344.305 
2344.400 
2344.495 
2344.590 
2344.684 
2344.779 
2344.874 
2344.969 
2345.063 
2345.158 
2345.253 
2345.348 
2345.442 
2345.537 
2345.632 
2345.727 
2345.821 
2345.916 
2346.011 
2346.106 
2346.200 
2346.295 
2346.390 
2346.485 
2346.579 
2346.674 
2346.769 
2346.863 
2346.958 
2347.053 
2347.148 
2347.242 
2347.337 
2347.432 
2347.527 
2347.621 
2347.716 
2347.811 
2347.905 
2348.000 
2348.095 
2348.190 
2348.284 
2348.379 
2348.474 
2348.569 
2348.663 
2348.758 
2348.853 
2348.947 
2349.042 
2349.137 
2349.232 
2349.326 
2349.421 
2349.516 
2349.610 
2349.705 
2349.800 
2349.894 
2349.989 
2350.084 
2350.179 
2350.273 
2350.368 
2350.463 
2350.557 
2350.652 
2350.747 
2350.842 
2350.936 
2351.031 
2351.126 
2351.220 
2351.315 
2351.410 
2351.504 
2351.599 
2351.694 
2351.788 
2351.883 
2351.978 
2352.072 
2352.167 
2352.262 
2352.357 
2352.451 
2352.546 
2352.641 
2352.735 
2352.830 
2352.925 
2353.019 
2353.114 
2353.209 
2353.303 
2353.398 
2353.493 
2353.587 
2353.682 
2353.777 
2353.871 
2353.966 
2354.061 
2354.155 
2354.250 
2354.345 
2354.439 
2354.534 
2354.629 
2354.723 
2354.818 
2354.913 
2355.007 
2355.102 
2355.197 
2355.291 
2355.386 
2355.481 
2355.575 
2355.670 
2355.765 
2355.859 
2355.954 
2356.049 
2356.143 
2356.238 
2356.333 
2356.427 
2356.522 
2356.617 
2356.711 
2356.806 
2356.900 
2356.995 
2357.090 
2357.184 
2357.279 
2357.374 
2357.468 
2357.563 
2357.658 
2357.752 
2357.847 
2357.941 
2358.036 
2358.131 
2358.225 
2358.320 
2358.415 
2358.509 
2358.604 
2358.699 
2358.793 
2358.888 
2358.982 
2359.077 
2359.172 
2359.266 
2359.361 
2359.456 
2359.550 
2359.645 
2359.739 
2359.834 
2359.929 
2360.023 
2360.118 
2360.212 
2360.307 
2360.402 
2360.496 
2360.591 
2360.686 
2360.780 
2360.875 
2360.969 
2361.064 
2361.159 
2361.253 
2361.348 
2361.442 
2361.537 
2361.632 
2361.726 
2361.821 
2361.915 
2362.010 
2362.105 
2362.199 
2362.294 
2362.388 
2362.483 
2362.578 
2362.672 
2362.767 
2362.861 
2362.956 
2363.051 
2363.145 
2363.240 
2363.334 
2363.429 
2363.524 
2363.618 
2363.713 
2363.807 
2363.902 
2363.996 
2364.091 
2364.186 
2364.280 
2364.375 
2364.469 
2364.564 
2364.659 
2364.753 
2364.848 
2364.942 
2365.037 
2365.131 
2365.226 
2365.321 
2365.415 
2365.510 
2365.604 
2365.699 
2365.793 
2365.888 
2365.983 
2366.077 
2366.172 
2366.266 
2366.361 
2366.455 
2366.550 
2366.644 
2366.739 
2366.834 
2366.928 
2367.023 
2367.117 
2367.212 
2367.306 
2367.401 
2367.495 
2367.590 
2367.685 
2367.779 
2367.874 
2367.968 
2368.063 
2368.157 
2368.252 
2368.346 
2368.441 
2368.535 
2368.630 
2368.725 
2368.819 
2368.914 
2369.008 
2369.103 
2369.197 
2369.292 
2369.386 
2369.481 
2369.575 
2369.670 
2369.764 
2369.859 
2369.954 
2370.048 
2370.143 
2370.237 
2370.332 
2370.426 
2370.521 
2370.615 
2370.710 
2370.804 
2370.899 
2370.993 
2371.088 
2371.182 
2371.277 
2371.371 
2371.466 
2371.560 
2371.655 
2371.749 
2371.844 
2371.939 
2372.033 
2372.128 
2372.222 
2372.317 
2372.411 
2372.506 
2372.600 
2372.695 
2372.789 
2372.884 
2372.978 
2373.073 
2373.167 
2373.262 
2373.356 
2373.451 
2373.545 
2373.640 
2373.734 
2373.829 
2373.923 
2374.018 
2374.112 
2374.207 
2374.301 
2374.396 
2374.490 
2374.585 
2374.679 
2374.774 
2374.868 
2374.963 
2375.057 
2375.151 
2375.246 
2375.340 
2375.435 
2375.529 
2375.624 
2375.718 
2375.813 
2375.907 
2376.002 
2376.096 
2376.191 
2376.285 
2376.380 
2376.474 
2376.569 
2376.663 
2376.758 
2376.852 
2376.947 
2377.041 
2377.136 
2377.230 
2377.324 
2377.419 
2377.513 
2377.608 
2377.702 
2377.797 
2377.891 
2377.986 
2378.080 
2378.175 
2378.269 
2378.364 
2378.458 
2378.552 
2378.647 
2378.741 
2378.836 
2378.930 
2379.025 
2379.119 
2379.214 
2379.308 
2379.403 
2379.497 
2379.591 
2379.686 
2379.780 
2379.875 
2379.969 
2380.064 
2380.158 
2380.253 
2380.347 
2380.441 
2380.536 
2380.630 
2380.725 
2380.819 
2380.914 
2381.008 
2381.102 
2381.197 
2381.291 
2381.386 
2381.480 
2381.575 
2381.669 
2381.763 
2381.858 
2381.952 
2382.047 
2382.141 
2382.236 
2382.330 
2382.424 
2382.519 
2382.613 
2382.708 
2382.802 
2382.897 
2382.991 
2383.085 
2383.180 
2383.274 
2383.369 
2383.463 
2383.557 
2383.652 
2383.746 
2383.841 
2383.935 
2384.030 
2384.124 
2384.218 
2384.313 
2384.407 
2384.502 
2384.596 
2384.690 
2384.785 
2384.879 
2384.974 
2385.068 
2385.162 
2385.257 
2385.351 
2385.446 
2385.540 
2385.634 
2385.729 
2385.823 
2385.917 
2386.012 
2386.106 
2386.201 
2386.295 
2386.389 
2386.484 
2386.578 
2386.673 
2386.767 
2386.861 
2386.956 
2387.050 
2387.145 
2387.239 
2387.333 
2387.428 
2387.522 
2387.616 
2387.711 
2387.805 
2387.900 
2387.994 
2388.088 
2388.183 
2388.277 
2388.371 
2388.466 
2388.560 
2388.655 
2388.749 
2388.843 
2388.938 
2389.032 
2389.126 
2389.221 
2389.315 
2389.409 
2389.504 
2389.598 
2389.693 
2389.787 
2389.881 
2389.976 
2390.070 
2390.164 
2390.259 
2390.353 
2390.447 
2390.542 
2390.636 
2390.730 
2390.825 
2390.919 
2391.013 
2391.108 
2391.202 
2391.296 
2391.391 
2391.485 
2391.580 
2391.674 
2391.768 
2391.863 
2391.957 
2392.051 
2392.146 
2392.240 
2392.334 
2392.429 
2392.523 
2392.617 
2392.712 
2392.806 
2392.900 
2392.995 
2393.089 
2393.183 
2393.278 
2393.372 
2393.466 
2393.561 
2393.655 
2393.749 
2393.843 
2393.938 
2394.032 
2394.126 
2394.221 
2394.315 
2394.409 
2394.504 
2394.598 
2394.692 
2394.787 
2394.881 
2394.975 
2395.070 
2395.164 
2395.258 
2395.353 
2395.447 
2395.541 
2395.635 
2395.730 
2395.824 
2395.918 
2396.013 
2396.107 
2396.201 
2396.296 
2396.390 
2396.484 
2396.579 
2396.673 
2396.767 
2396.861 
2396.956 
2397.050 
2397.144 
2397.239 
2397.333 
2397.427 
2397.521 
2397.616 
2397.710 
2397.804 
2397.899 
2397.993 
2398.087 
2398.181 
2398.276 
2398.370 
2398.464 
2398.559 
2398.653 
2398.747 
2398.841 
2398.936 
2399.030 
2399.124 
2399.219 
2399.313 
2399.407 
2399.501 
2399.596 
2399.690 
2399.784 
2399.878 
2399.973 
2400.067 
2400.161 
2400.256 
2400.350 
2400.444 
2400.538 
2400.633 
2400.727 
2400.821 
2400.915 
2401.010 
2401.104 
2401.198 
2401.292 
2401.387 
2401.481 
2401.575 
2401.669 
2401.764 
2401.858 
2401.952 
2402.046 
2402.141 
2402.235 
2402.329 
2402.423 
2402.518 
2402.612 
2402.706 
2402.800 
2402.895 
2402.989 
2403.083 
2403.177 
2403.272 
2403.366 
2403.460 
2403.554 
2403.649 
2403.743 
2403.837 
2403.931 
2404.026 
2404.120 
2404.214 
2404.308 
2404.402 
2404.497 
2404.591 
2404.685 
2404.779 
2404.874 
2404.968 
2405.062 
2405.156 
2405.250 
2405.345 
2405.439 
2405.533 
2405.627 
2405.722 
2405.816 
2405.910 
2406.004 
2406.098 
2406.193 
2406.287 
2406.381 
2406.475 
2406.570 
2406.664 
2406.758 
2406.852 
2406.946 
2407.041 
2407.135 
2407.229 
2407.323 
2407.417 
2407.512 
2407.606 
2407.700 
2407.794 
2407.888 
2407.983 
2408.077 
2408.171 
2408.265 
2408.359 
2408.454 
2408.548 
2408.642 
2408.736 
2408.830 
2408.925 
2409.019 
2409.113 
2409.207 
2409.301 
2409.396 
2409.490 
2409.584 
2409.678 
2409.772 
2409.866 
2409.961 
2410.055 
2410.149 
2410.243 
2410.337 
2410.432 
2410.526 
2410.620 
2410.714 
2410.808 
2410.902 
2410.997 
2411.091 
2411.185 
2411.279 
2411.373 
2411.467 
2411.562 
2411.656 
2411.750 
2411.844 
2411.938 
2412.032 
2412.127 
2412.221 
2412.315 
2412.409 
2412.503 
2412.597 
2412.692 
2412.786 
2412.880 
2412.974 
2413.068 
2413.162 
2413.256 
2413.351 
2413.445 
2413.539 
2413.633 
2413.727 
2413.821 
2413.916 
2414.010 
2414.104 
2414.198 
2414.292 
2414.386 
2414.480 
2414.575 
2414.669 
2414.763 
2414.857 
2414.951 
2415.045 
2415.139 
2415.233 
2415.328 
2415.422 
2415.516 
2415.610 
2415.704 
2415.798 
2415.892 
2415.987 
2416.081 
2416.175 
2416.269 
2416.363 
2416.457 
2416.551 
2416.645 
2416.740 
2416.834 
2416.928 
2417.022 
2417.116 
2417.210 
2417.304 
2417.398 
2417.493 
2417.587 
2417.681 
2417.775 
2417.869 
2417.963 
2418.057 
2418.151 
2418.245 
2418.340 
2418.434 
2418.528 
2418.622 
2418.716 
2418.810 
2418.904 
2418.998 
2419.092 
2419.186 
2419.281 
2419.375 
2419.469 
2419.563 
2419.657 
2419.751 
2419.845 
2419.939 
2420.033 
2420.127 
2420.222 
2420.316 
2420.410 
2420.504 
2420.598 
2420.692 
2420.786 
2420.880 
2420.974 
2421.068 
2421.162 
2421.256 
2421.351 
2421.445 
2421.539 
2421.633 
2421.727 
2421.821 
2421.915 
2422.009 
2422.103 
2422.197 
2422.291 
2422.385 
2422.479 
2422.574 
2422.668 
2422.762 
2422.856 
2422.950 
2423.044 
2423.138 
2423.232 
2423.326 
2423.420 
2423.514 
2423.608 
2423.702 
2423.796 
2423.890 
2423.985 
2424.079 
2424.173 
2424.267 
2424.361 
2424.455 
2424.549 
2424.643 
2424.737 
2424.831 
2424.925 
2425.019 
2425.113 
2425.207 
2425.301 
2425.395 
2425.489 
2425.583 
2425.677 
2425.772 
2425.866 
2425.960 
2426.054 
2426.148 
2426.242 
2426.336 
2426.430 
2426.524 
2426.618 
2426.712 
2426.806 
2426.900 
2426.994 
2427.088 
2427.182 
2427.276 
2427.370 
2427.464 
2427.558 
2427.652 
2427.746 
2427.840 
2427.934 
2428.028 
2428.122 
2428.216 
2428.310 
2428.404 
2428.498 
2428.592 
2428.686 
2428.780 
2428.874 
2428.969 
2429.063 
2429.157 
2429.251 
2429.345 
2429.439 
2429.533 
2429.627 
2429.721 
2429.815 
2429.909 
2430.003 
2430.097 
2430.191 
2430.285 
2430.379 
2430.473 
2430.567 
2430.661 
2430.755 
2430.849 
2430.943 
2431.037 
2431.131 
2431.225 
2431.319 
2431.413 
2431.507 
2431.601 
2431.695 
2431.789 
2431.883 
2431.977 
2432.071 
2432.165 
2432.259 
2432.353 
2432.447 
2432.541 
2432.634 
2432.728 
2432.822 
2432.916 
2433.010 
2433.104 
2433.198 
2433.292 
2433.386 
2433.480 
2433.574 
2433.668 
2433.762 
2433.856 
2433.950 
2434.044 
2434.138 
2434.232 
2434.326 
2434.420 
2434.514 
2434.608 
2434.702 
2434.796 
2434.890 
2434.984 
2435.078 
2435.172 
2435.266 
2435.360 
2435.454 
2435.548 
2435.642 
2435.735 
2435.829 
2435.923 
2436.017 
2436.111 
2436.205 
2436.299 
2436.393 
2436.487 
2436.581 
2436.675 
2436.769 
2436.863 
2436.957 
2437.051 
2437.145 
2437.239 
2437.333 
2437.427 
2437.521 
2437.614 
2437.708 
2437.802 
2437.896 
2437.990 
2438.084 
2438.178 
2438.272 
2438.366 
2438.460 
2438.554 
2438.648 
2438.742 
2438.836 
2438.930 
2439.023 
2439.117 
2439.211 
2439.305 
2439.399 
2439.493 
2439.587 
2439.681 
2439.775 
2439.869 
2439.963 
2440.057 
2440.151 
2440.244 
2440.338 
2440.432 
2440.526 
2440.620 
2440.714 
2440.808 
2440.902 
2440.996 
2441.090 
2441.184 
2441.277 
2441.371 
2441.465 
2441.559 
2441.653 
2441.747 
2441.841 
2441.935 
2442.029 
2442.123 
2442.216 
2442.310 
2442.404 
2442.498 
2442.592 
2442.686 
2442.780 
2442.874 
2442.968 
2443.062 
2443.155 
2443.249 
2443.343 
2443.437 
2443.531 
2443.625 
2443.719 
2443.813 
2443.907 
2444.000 
2444.094 
2444.188 
2444.282 
2444.376 
2444.470 
2444.564 
2444.658 
2444.751 
2444.845 
2444.939 
2445.033 
2445.127 
2445.221 
2445.315 
2445.409 
2445.502 
2445.596 
2445.690 
2445.784 
2445.878 
2445.972 
2446.066 
2446.160 
2446.253 
2446.347 
2446.441 
2446.535 
2446.629 
2446.723 
2446.817 
2446.910 
2447.004 
2447.098 
2447.192 
2447.286 
2447.380 
2447.474 
2447.567 
2447.661 
2447.755 
2447.849 
2447.943 
2448.037 
2448.131 
2448.224 
2448.318 
2448.412 
2448.506 
2448.600 
2448.694 
2448.787 
2448.881 
2448.975 
2449.069 
2449.163 
2449.257 
2449.350 
2449.444 
2449.538 
2449.632 
2449.726 
2449.820 
2449.913 
2450.007 
2450.101 
2450.195 
2450.289 
2450.383 
2450.476 
2450.570 
2450.664 
2450.758 
2450.852 
2450.946 
2451.039 
2451.133 
2451.227 
2451.321 
2451.415 
2451.508 
2451.602 
2451.696 
2451.790 
2451.884 
2451.978 
2452.071 
2452.165 
2452.259 
2452.353 
2452.447 
2452.540 
2452.634 
2452.728 
2452.822 
2452.916 
2453.009 
2453.103 
2453.197 
2453.291 
2453.385 
2453.478 
2453.572 
2453.666 
2453.760 
2453.854 
2453.947 
2454.041 
2454.135 
2454.229 
2454.323 
2454.416 
2454.510 
2454.604 
2454.698 
2454.792 
2454.885 
2454.979 
2455.073 
2455.167 
2455.261 
2455.354 
2455.448 
2455.542 
2455.636 
2455.729 
2455.823 
2455.917 
2456.011 
2456.105 
2456.198 
2456.292 
2456.386 
2456.480 
2456.573 
2456.667 
2456.761 
2456.855 
2456.949 
2457.042 
2457.136 
2457.230 
2457.324 
2457.417 
2457.511 
2457.605 
2457.699 
2457.792 
2457.886 
2457.980 
2458.074 
2458.167 
2458.261 
2458.355 
2458.449 
2458.542 
2458.636 
2458.730 
2458.824 
2458.918 
2459.011 
2459.105 
2459.199 
2459.293 
2459.386 
2459.480 
2459.574 
2459.668 
2459.761 
2459.855 
2459.949 
2460.042 
2460.136 
2460.230 
2460.324 
2460.417 
2460.511 
2460.605 
2460.699 
2460.792 
2460.886 
2460.980 
2461.074 
2461.167 
2461.261 
2461.355 
2461.449 
2461.542 
2461.636 
2461.730 
2461.823 
2461.917 
2462.011 
2462.105 
2462.198 
2462.292 
2462.386 
2462.480 
2462.573 
2462.667 
2462.761 
2462.854 
2462.948 
2463.042 
2463.136 
2463.229 
2463.323 
2463.417 
2463.510 
2463.604 
2463.698 
2463.792 
2463.885 
2463.979 
2464.073 
2464.166 
2464.260 
2464.354 
2464.447 
2464.541 
2464.635 
2464.729 
2464.822 
2464.916 
2465.010 
2465.103 
2465.197 
2465.291 
2465.384 
2465.478 
2465.572 
2465.666 
2465.759 
2465.853 
2465.947 
2466.040 
2466.134 
2466.228 
2466.321 
2466.415 
2466.509 
2466.602 
2466.696 
2466.790 
2466.884 
2466.977 
2467.071 
2467.165 
2467.258 
2467.352 
2467.446 
2467.539 
2467.633 
2467.727 
2467.820 
2467.914 
2468.008 
2468.101 
2468.195 
2468.289 
2468.382 
2468.476 
2468.570 
2468.663 
2468.757 
2468.851 
2468.944 
2469.038 
2469.132 
2469.225 
2469.319 
2469.413 
2469.506 
2469.600 
2469.694 
2469.787 
2469.881 
2469.975 
2470.068 
2470.162 
2470.256 
2470.349 
2470.443 
2470.537 
2470.630 
2470.724 
2470.817 
2470.911 
2471.005 
2471.098 
2471.192 
2471.286 
2471.379 
2471.473 
2471.567 
2471.660 
2471.754 
2471.848 
2471.941 
2472.035 
2472.128 
2472.222 
2472.316 
2472.409 
2472.503 
2472.597 
2472.690 
2472.784 
2472.878 
2472.971 
2473.065 
2473.158 
2473.252 
2473.346 
2473.439 
2473.533 
2473.627 
2473.720 
2473.814 
2473.907 
2474.001 
2474.095 
2474.188 
2474.282 
2474.375 
2474.469 
2474.563 
2474.656 
2474.750 
2474.844 
2474.937 
2475.031 
2475.124 
2475.218 
2475.312 
2475.405 
2475.499 
2475.592 
2475.686 
2475.780 
2475.873 
2475.967 
2476.060 
2476.154 
2476.248 
2476.341 
2476.435 
2476.528 
2476.622 
2476.716 
2476.809 
2476.903 
2476.996 
2477.090 
2477.184 
2477.277 
2477.371 
2477.464 
2477.558 
2477.652 
2477.745 
2477.839 
2477.932 
2478.026 
2478.120 
2478.213 
2478.307 
2478.400 
2478.494 
2478.587 
2478.681 
2478.775 
2478.868 
2478.962 
2479.055 
2479.149 
2479.242 
2479.336 
2479.430 
2479.523 
2479.617 
2479.710 
2479.804 
2479.897 
2479.991 
2480.085 
2480.178 
2480.272 
2480.365 
2480.459 
2480.552 
2480.646 
2480.740 
2480.833 
2480.927 
2481.020 
2481.114 
2481.207 
2481.301 
2481.394 
2481.488 
2481.582 
2481.675 
2481.769 
2481.862 
2481.956 
2482.049 
2482.143 
2482.236 
2482.330 
2482.423 
2482.517 
2482.611 
2482.704 
2482.798 
2482.891 
2482.985 
2483.078 
2483.172 
2483.265 
2483.359 
2483.452 
2483.546 
2483.640 
2483.733 
2483.827 
2483.920 
2484.014 
2484.107 
2484.201 
2484.294 
2484.388 
2484.481 
2484.575 
2484.668 
2484.762 
2484.855 
2484.949 
2485.042 
2485.136 
2485.230 
2485.323 
2485.417 
2485.510 
2485.604 
2485.697 
2485.791 
2485.884 
2485.978 
2486.071 
2486.165 
2486.258 
2486.352 
2486.445 
2486.539 
2486.632 
2486.726 
2486.819 
2486.913 
2487.006 
2487.100 
2487.193 
2487.287 
2487.380 
2487.474 
2487.567 
2487.661 
2487.754 
2487.848 
2487.941 
2488.035 
2488.128 
2488.222 
2488.315 
2488.409 
2488.502 
2488.596 
2488.689 
2488.783 
2488.876 
2488.970 
2489.063 
2489.157 
2489.250 
2489.344 
2489.437 
2489.531 
2489.624 
2489.718 
2489.811 
2489.905 
2489.998 
2490.091 
2490.185 
2490.278 
2490.372 
2490.465 
2490.559 
2490.652 
2490.746 
2490.839 
2490.933 
2491.026 
2491.120 
2491.213 
2491.307 
2491.400 
2491.494 
2491.587 
2491.681 
2491.774 
2491.867 
2491.961 
2492.054 
2492.148 
2492.241 
2492.335 
2492.428 
2492.522 
2492.615 
2492.709 
2492.802 
2492.895 
2492.989 
2493.082 
2493.176 
2493.269 
2493.363 
2493.456 
2493.550 
2493.643 
2493.737 
2493.830 
2493.923 
2494.017 
2494.110 
2494.204 
2494.297 
2494.391 
2494.484 
2494.578 
2494.671 
2494.764 
2494.858 
2494.951 
2495.045 
2495.138 
2495.232 
2495.325 
2495.418 
2495.512 
2495.605 
2495.699 
2495.792 
2495.886 
2495.979 
2496.072 
2496.166 
2496.259 
2496.353 
2496.446 
2496.540 
2496.633 
2496.726 
2496.820 
2496.913 
2497.007 
2497.100 
2497.193 
2497.287 
2497.380 
2497.474 
2497.567 
2497.661 
2497.754 
2497.847 
2497.941 
2498.034 
2498.128 
2498.221 
2498.314 
2498.408 
2498.501 
2498.595 
2498.688 
2498.781 
2498.875 
2498.968 
2499.062 
2499.155 
2499.248 
2499.342 
2499.435 
2499.529 
2499.622 
2499.715 
2499.809 
2499.902 
2499.996 
2500.089 
2500.182 
2500.276 
2500.369 
2500.463 
2500.556 
2500.649 
2500.743 
2500.836 
2500.929 
2501.023 
2501.116 
2501.210 
2501.303 
2501.396 
2501.490 
2501.583 
2501.676 
2501.770 
2501.863 
2501.957 
2502.050 
2502.143 
2502.237 
2502.330 
2502.423 
2502.517 
2502.610 
2502.704 
2502.797 
2502.890 
2502.984 
2503.077 
2503.170 
2503.264 
2503.357 
2503.450 
2503.544 
2503.637 
2503.731 
2503.824 
2503.917 
2504.011 
2504.104 
2504.197 
2504.291 
2504.384 
2504.477 
2504.571 
2504.664 
2504.757 
2504.851 
2504.944 
2505.038 
2505.131 
2505.224 
2505.318 
2505.411 
2505.504 
2505.598 
2505.691 
2505.784 
2505.878 
2505.971 
2506.064 
2506.158 
2506.251 
2506.344 
2506.438 
2506.531 
2506.624 
2506.718 
2506.811 
2506.904 
2506.998 
2507.091 
2507.184 
2507.278 
2507.371 
2507.464 
2507.558 
2507.651 
2507.744 
2507.838 
2507.931 
2508.024 
2508.117 
2508.211 
2508.304 
2508.397 
2508.491 
2508.584 
2508.677 
2508.771 
2508.864 
2508.957 
2509.051 
2509.144 
2509.237 
2509.331 
2509.424 
2509.517 
2509.611 
2509.704 
2509.797 
2509.890 
2509.984 
2510.077 
2510.170 
2510.264 
2510.357 
2510.450 
2510.544 
2510.637 
2510.730 
2510.823 
2510.917 
2511.010 
2511.103 
2511.197 
2511.290 
2511.383 
2511.476 
2511.570 
2511.663 
2511.756 
2511.850 
2511.943 
2512.036 
2512.129 
2512.223 
2512.316 
2512.409 
2512.503 
2512.596 
2512.689 
2512.782 
2512.876 
2512.969 
2513.062 
2513.156 
2513.249 
2513.342 
2513.435 
2513.529 
2513.622 
2513.715 
2513.808 
2513.902 
2513.995 
2514.088 
2514.182 
2514.275 
2514.368 
2514.461 
2514.555 
2514.648 
2514.741 
2514.834 
2514.928 
2515.021 
2515.114 
2515.207 
2515.301 
2515.394 
2515.487 
2515.580 
2515.674 
2515.767 
2515.860 
2515.953 
2516.047 
2516.140 
2516.233 
2516.326 
2516.420 
2516.513 
2516.606 
2516.699 
2516.793 
2516.886 
2516.979 
2517.072 
2517.166 
2517.259 
2517.352 
2517.445 
2517.539 
2517.632 
2517.725 
2517.818 
2517.912 
2518.005 
2518.098 
2518.191 
2518.284 
2518.378 
2518.471 
2518.564 
2518.657 
2518.751 
2518.844 
2518.937 
2519.030 
2519.123 
2519.217 
2519.310 
2519.403 
2519.496 
2519.590 
2519.683 
2519.776 
2519.869 
2519.962 
2520.056 
2520.149 
2520.242 
2520.335 
2520.428 
2520.522 
2520.615 
2520.708 
2520.801 
2520.895 
2520.988 
2521.081 
2521.174 
2521.267 
2521.361 
2521.454 
2521.547 
2521.640 
2521.733 
2521.827 
2521.920 
2522.013 
2522.106 
2522.199 
2522.293 
2522.386 
2522.479 
2522.572 
2522.665 
2522.759 
2522.852 
2522.945 
2523.038 
2523.131 
2523.224 
2523.318 
2523.411 
2523.504 
2523.597 
2523.690 
2523.784 
2523.877 
2523.970 
2524.063 
2524.156 
2524.249 
2524.343 
2524.436 
2524.529 
2524.622 
2524.715 
2524.808 
2524.902 
2524.995 
2525.088 
2525.181 
2525.274 
2525.368 
2525.461 
2525.554 
2525.647 
2525.740 
2525.833 
2525.927 
2526.020 
2526.113 
2526.206 
2526.299 
2526.392 
2526.485 
2526.579 
2526.672 
2526.765 
2526.858 
2526.951 
2527.044 
2527.138 
2527.231 
2527.324 
2527.417 
2527.510 
2527.603 
2527.696 
2527.790 
2527.883 
2527.976 
2528.069 
2528.162 
2528.255 
2528.348 
2528.442 
2528.535 
2528.628 
2528.721 
2528.814 
2528.907 
2529.000 
2529.094 
2529.187 
2529.280 
2529.373 
2529.466 
2529.559 
2529.652 
2529.745 
2529.839 
2529.932 
2530.025 
2530.118 
2530.211 
2530.304 
2530.397 
2530.490 
2530.584 
2530.677 
2530.770 
2530.863 
2530.956 
2531.049 
2531.142 
2531.235 
2531.329 
2531.422 
2531.515 
2531.608 
2531.701 
2531.794 
2531.887 
2531.980 
2532.073 
2532.167 
2532.260 
2532.353 
2532.446 
2532.539 
2532.632 
2532.725 
2532.818 
2532.911 
2533.004 
2533.098 
2533.191 
2533.284 
2533.377 
2533.470 
2533.563 
2533.656 
2533.749 
2533.842 
2533.935 
2534.028 
2534.122 
2534.215 
2534.308 
2534.401 
2534.494 
2534.587 
2534.680 
2534.773 
2534.866 
2534.959 
2535.052 
2535.146 
2535.239 
2535.332 
2535.425 
2535.518 
2535.611 
2535.704 
2535.797 
2535.890 
2535.983 
2536.076 
2536.169 
2536.262 
2536.356 
2536.449 
2536.542 
2536.635 
2536.728 
2536.821 
2536.914 
2537.007 
2537.100 
2537.193 
2537.286 
2537.379 
2537.472 
2537.565 
2537.658 
2537.751 
2537.845 
2537.938 
2538.031 
2538.124 
2538.217 
2538.310 
2538.403 
2538.496 
2538.589 
2538.682 
2538.775 
2538.868 
2538.961 
2539.054 
2539.147 
2539.240 
2539.333 
2539.426 
2539.519 
2539.612 
2539.705 
2539.799 
2539.892 
2539.985 
2540.078 
2540.171 
2540.264 
2540.357 
2540.450 
2540.543 
2540.636 
2540.729 
2540.822 
2540.915 
2541.008 
2541.101 
2541.194 
2541.287 
2541.380 
2541.473 
2541.566 
2541.659 
2541.752 
2541.845 
2541.938 
2542.031 
2542.124 
2542.217 
2542.310 
2542.403 
2542.496 
2542.589 
2542.682 
2542.775 
2542.868 
2542.961 
2543.054 
2543.147 
2543.240 
2543.333 
2543.426 
2543.519 
2543.612 
2543.705 
2543.798 
2543.891 
2543.984 
2544.077 
2544.170 
2544.263 
2544.356 
2544.449 
2544.542 
2544.635 
2544.728 
2544.821 
2544.914 
2545.007 
2545.100 
2545.193 
2545.286 
2545.379 
2545.472 
2545.565 
2545.658 
2545.751 
2545.844 
2545.937 
2546.030 
2546.123 
2546.216 
2546.309 
2546.402 
2546.495 
2546.588 
2546.681 
2546.774 
2546.867 
2546.960 
2547.053 
2547.146 
2547.239 
2547.332 
2547.425 
2547.518 
2547.611 
2547.704 
2547.797 
2547.890 
2547.983 
2548.076 
2548.169 
2548.262 
2548.355 
2548.448 
2548.541 
2548.634 
2548.727 
2548.819 
2548.912 
2549.005 
2549.098 
2549.191 
2549.284 
2549.377 
2549.470 
2549.563 
2549.656 
2549.749 
2549.842 
2549.935 
2550.028 
2550.121 
2550.214 
2550.307 
2550.400 
2550.493 
2550.586 
2550.679 
2550.771 
2550.864 
2550.957 
2551.050 
2551.143 
2551.236 
2551.329 
2551.422 
2551.515 
2551.608 
2551.701 
2551.794 
2551.887 
2551.980 
2552.073 
2552.166 
2552.258 
2552.351 
2552.444 
2552.537 
2552.630 
2552.723 
2552.816 
2552.909 
2553.002 
2553.095 
2553.188 
2553.281 
2553.374 
2553.466 
2553.559 
2553.652 
2553.745 
2553.838 
2553.931 
2554.024 
2554.117 
2554.210 
2554.303 
2554.396 
2554.488 
2554.581 
2554.674 
2554.767 
2554.860 
2554.953 
2555.046 
2555.139 
2555.232 
2555.325 
2555.418 
2555.510 
2555.603 
2555.696 
2555.789 
2555.882 
2555.975 
2556.068 
2556.161 
2556.254 
2556.347 
2556.439 
2556.532 
2556.625 
2556.718 
2556.811 
2556.904 
2556.997 
2557.090 
2557.183 
2557.275 
2557.368 
2557.461 
2557.554 
2557.647 
2557.740 
2557.833 
2557.926 
2558.018 
2558.111 
2558.204 
2558.297 
2558.390 
2558.483 
2558.576 
2558.669 
2558.761 
2558.854 
2558.947 
2559.040 
2559.133 
2559.226 
2559.319 
2559.412 
2559.504 
2559.597 
2559.690 
2559.783 
2559.876 
2559.969 
2560.062 
2560.154 
2560.247 
2560.340 
2560.433 
2560.526 
2560.619 
2560.712 
2560.804 
2560.897 
2560.990 
2561.083 
2561.176 
2561.269 
2561.362 
2561.454 
2561.547 
2561.640 
2561.733 
2561.826 
2561.919 
2562.011 
2562.104 
2562.197 
2562.290 
2562.383 
2562.476 
2562.568 
2562.661 
2562.754 
2562.847 
2562.940 
2563.033 
2563.126 
2563.218 
2563.311 
2563.404 
2563.497 
2563.590 
2563.682 
2563.775 
2563.868 
2563.961 
2564.054 
2564.147 
2564.239 
2564.332 
2564.425 
2564.518 
2564.611 
2564.704 
2564.796 
2564.889 
2564.982 
2565.075 
2565.168 
2565.260 
2565.353 
2565.446 
2565.539 
2565.632 
2565.725 
2565.817 
2565.910 
2566.003 
2566.096 
2566.189 
2566.281 
2566.374 
2566.467 
2566.560 
2566.653 
2566.745 
2566.838 
2566.931 
2567.024 
2567.117 
2567.209 
2567.302 
2567.395 
2567.488 
2567.581 
2567.673 
2567.766 
2567.859 
2567.952 
2568.044 
2568.137 
2568.230 
2568.323 
2568.416 
2568.508 
2568.601 
2568.694 
2568.787 
2568.880 
2568.972 
2569.065 
2569.158 
2569.251 
2569.343 
2569.436 
2569.529 
2569.622 
2569.715 
2569.807 
2569.900 
2569.993 
2570.086 
2570.178 
2570.271 
2570.364 
2570.457 
2570.550 
2570.642 
2570.735 
2570.828 
2570.921 
2571.013 
2571.106 
2571.199 
2571.292 
2571.384 
2571.477 
2571.570 
2571.663 
2571.755 
2571.848 
2571.941 
2572.034 
2572.126 
2572.219 
2572.312 
2572.405 
2572.497 
2572.590 
2572.683 
2572.776 
2572.868 
2572.961 
2573.054 
2573.147 
2573.239 
2573.332 
2573.425 
2573.518 
2573.610 
2573.703 
2573.796 
2573.889 
2573.981 
2574.074 
2574.167 
2574.260 
2574.352 
2574.445 
2574.538 
2574.630 
2574.723 
2574.816 
2574.909 
2575.001 
2575.094 
2575.187 
2575.280 
2575.372 
2575.465 
2575.558 
2575.650 
2575.743 
2575.836 
2575.929 
2576.021 
2576.114 
2576.207 
2576.299 
2576.392 
2576.485 
2576.578 
2576.670 
2576.763 
2576.856 
2576.948 
2577.041 
2577.134 
2577.227 
2577.319 
2577.412 
2577.505 
2577.597 
2577.690 
2577.783 
2577.876 
2577.968 
2578.061 
2578.154 
2578.246 
2578.339 
2578.432 
2578.524 
2578.617 
2578.710 
2578.802 
2578.895 
2578.988 
2579.081 
2579.173 
2579.266 
2579.359 
2579.451 
2579.544 
2579.637 
2579.729 
2579.822 
2579.915 
2580.007 
2580.100 
2580.193 
2580.285 
2580.378 
2580.471 
2580.564 
2580.656 
2580.749 
2580.842 
2580.934 
2581.027 
2581.120 
2581.212 
2581.305 
2581.398 
2581.490 
2581.583 
2581.676 
2581.768 
2581.861 
2581.954 
2582.046 
2582.139 
2582.232 
2582.324 
2582.417 
2582.510 
2582.602 
2582.695 
2582.788 
2582.880 
2582.973 
2583.066 
2583.158 
2583.251 
2583.343 
2583.436 
2583.529 
2583.621 
2583.714 
2583.807 
2583.899 
2583.992 
2584.085 
2584.177 
2584.270 
2584.363 
2584.455 
2584.548 
2584.641 
2584.733 
2584.826 
2584.918 
2585.011 
2585.104 
2585.196 
2585.289 
2585.382 
2585.474 
2585.567 
2585.660 
2585.752 
2585.845 
2585.937 
2586.030 
2586.123 
2586.215 
2586.308 
2586.401 
2586.493 
2586.586 
2586.678 
2586.771 
2586.864 
2586.956 
2587.049 
2587.142 
2587.234 
2587.327 
2587.419 
2587.512 
2587.605 
2587.697 
2587.790 
2587.883 
2587.975 
2588.068 
2588.160 
2588.253 
2588.346 
2588.438 
2588.531 
2588.623 
2588.716 
2588.809 
2588.901 
2588.994 
2589.086 
2589.179 
2589.272 
2589.364 
2589.457 
2589.549 
2589.642 
2589.735 
2589.827 
2589.920 
2590.012 
2590.105 
2590.198 
2590.290 
2590.383 
2590.475 
2590.568 
2590.661 
2590.753 
2590.846 
2590.938 
2591.031 
2591.123 
2591.216 
2591.309 
2591.401 
2591.494 
2591.586 
2591.679 
2591.772 
2591.864 
2591.957 
2592.049 
2592.142 
2592.234 
2592.327 
2592.420 
2592.512 
2592.605 
2592.697 
2592.790 
2592.882 
2592.975 
2593.068 
2593.160 
2593.253 
2593.345 
2593.438 
2593.530 
2593.623 
2593.716 
2593.808 
2593.901 
2593.993 
2594.086 
2594.178 
2594.271 
2594.363 
2594.456 
2594.549 
2594.641 
2594.734 
2594.826 
2594.919 
2595.011 
2595.104 
2595.196 
2595.289 
2595.381 
2595.474 
2595.567 
2595.659 
2595.752 
2595.844 
2595.937 
2596.029 
2596.122 
2596.214 
2596.307 
2596.399 
2596.492 
2596.584 
2596.677 
2596.770 
2596.862 
2596.955 
2597.047 
2597.140 
2597.232 
2597.325 
2597.417 
2597.510 
2597.602 
2597.695 
2597.787 
2597.880 
2597.972 
2598.065 
2598.157 
2598.250 
2598.343 
2598.435 
2598.528 
2598.620 
2598.713 
2598.805 
2598.898 
2598.990 
2599.083 
2599.175 
2599.268 
2599.360 
2599.453 
2599.545 
2599.638 
2599.730 
2599.823 
2599.915 
2600.008 
2600.100 
2600.193 
2600.285 
2600.378 
2600.470 
2600.563 
2600.655 
2600.748 
2600.840 
2600.933 
2601.025 
2601.118 
2601.210 
2601.303 
2601.395 
2601.488 
2601.580 
2601.673 
2601.765 
2601.858 
2601.950 
2602.043 
2602.135 
2602.228 
2602.320 
2602.413 
2602.505 
2602.598 
2602.690 
2602.783 
2602.875 
2602.967 
2603.060 
2603.152 
2603.245 
2603.337 
2603.430 
2603.522 
2603.615 
2603.707 
2603.800 
2603.892 
2603.985 
2604.077 
2604.170 
2604.262 
2604.355 
2604.447 
2604.540 
2604.632 
2604.724 
2604.817 
2604.909 
2605.002 
2605.094 
2605.187 
2605.279 
2605.372 
2605.464 
2605.557 
2605.649 
2605.741 
2605.834 
2605.926 
2606.019 
2606.111 
2606.204 
2606.296 
2606.389 
2606.481 
2606.574 
2606.666 
2606.758 
2606.851 
2606.943 
2607.036 
2607.128 
2607.221 
2607.313 
2607.406 
2607.498 
2607.590 
2607.683 
2607.775 
2607.868 
2607.960 
2608.053 
2608.145 
2608.237 
2608.330 
2608.422 
2608.515 
2608.607 
2608.700 
2608.792 
2608.884 
2608.977 
2609.069 
2609.162 
2609.254 
2609.347 
2609.439 
2609.531 
2609.624 
2609.716 
2609.809 
2609.901 
2609.993 
2610.086 
2610.178 
2610.271 
2610.363 
2610.456 
2610.548 
2610.640 
2610.733 
2610.825 
2610.918 
2611.010 
2611.102 
2611.195 
2611.287 
2611.380 
2611.472 
2611.564 
2611.657 
2611.749 
2611.842 
2611.934 
2612.026 
2612.119 
2612.211 
2612.304 
2612.396 
2612.488 
2612.581 
2612.673 
2612.766 
2612.858 
2612.950 
2613.043 
2613.135 
2613.228 
2613.320 
2613.412 
2613.505 
2613.597 
2613.689 
2613.782 
2613.874 
2613.967 
2614.059 
2614.151 
2614.244 
2614.336 
2614.429 
2614.521 
2614.613 
2614.706 
2614.798 
2614.890 
2614.983 
2615.075 
2615.168 
2615.260 
2615.352 
2615.445 
2615.537 
2615.629 
2615.722 
2615.814 
2615.906 
2615.999 
2616.091 
2616.184 
2616.276 
2616.368 
2616.461 
2616.553 
2616.645 
2616.738 
2616.830 
2616.922 
2617.015 
2617.107 
2617.199 
2617.292 
2617.384 
2617.476 
2617.569 
2617.661 
2617.754 
2617.846 
2617.938 
2618.031 
2618.123 
2618.215 
2618.308 
2618.400 
2618.492 
2618.585 
2618.677 
2618.769 
2618.862 
2618.954 
2619.046 
2619.139 
2619.231 
2619.323 
2619.416 
2619.508 
2619.600 
2619.693 
2619.785 
2619.877 
2619.970 
2620.062 
2620.154 
2620.247 
2620.339 
2620.431 
2620.524 
2620.616 
2620.708 
2620.801 
2620.893 
2620.985 
2621.078 
2621.170 
2621.262 
2621.354 
2621.447 
2621.539 
2621.631 
2621.724 
2621.816 
2621.908 
2622.001 
2622.093 
2622.185 
2622.278 
2622.370 
2622.462 
2622.554 
2622.647 
2622.739 
2622.831 
2622.924 
2623.016 
2623.108 
2623.201 
2623.293 
2623.385 
2623.477 
2623.570 
2623.662 
2623.754 
2623.847 
2623.939 
2624.031 
2624.124 
2624.216 
2624.308 
2624.400 
2624.493 
2624.585 
2624.677 
2624.770 
2624.862 
2624.954 
2625.046 
2625.139 
2625.231 
2625.323 
2625.416 
2625.508 
2625.600 
2625.692 
2625.785 
2625.877 
2625.969 
2626.061 
2626.154 
2626.246 
2626.338 
2626.431 
2626.523 
2626.615 
2626.707 
2626.800 
2626.892 
2626.984 
2627.076 
2627.169 
2627.261 
2627.353 
2627.445 
2627.538 
2627.630 
2627.722 
2627.814 
2627.907 
2627.999 
2628.091 
2628.183 
2628.276 
2628.368 
2628.460 
2628.553 
2628.645 
2628.737 
2628.829 
2628.921 
2629.014 
2629.106 
2629.198 
2629.290 
2629.383 
2629.475 
2629.567 
2629.659 
2629.752 
2629.844 
2629.936 
2630.028 
2630.121 
2630.213 
2630.305 
2630.397 
2630.490 
2630.582 
2630.674 
2630.766 
2630.859 
2630.951 
2631.043 
2631.135 
2631.227 
2631.320 
2631.412 
2631.504 
2631.596 
2631.689 
2631.781 
2631.873 
2631.965 
2632.057 
2632.150 
2632.242 
2632.334 
2632.426 
2632.519 
2632.611 
2632.703 
2632.795 
2632.887 
2632.980 
2633.072 
2633.164 
2633.256 
2633.348 
2633.441 
2633.533 
2633.625 
2633.717 
2633.809 
2633.902 
2633.994 
2634.086 
2634.178 
2634.270 
2634.363 
2634.455 
2634.547 
2634.639 
2634.731 
2634.824 
2634.916 
2635.008 
2635.100 
2635.192 
2635.285 
2635.377 
2635.469 
2635.561 
2635.653 
2635.746 
2635.838 
2635.930 
2636.022 
2636.114 
2636.206 
2636.299 
2636.391 
2636.483 
2636.575 
2636.667 
2636.760 
2636.852 
2636.944 
2637.036 
2637.128 
2637.220 
2637.313 
2637.405 
2637.497 
2637.589 
2637.681 
2637.773 
2637.866 
2637.958 
2638.050 
2638.142 
2638.234 
2638.326 
2638.419 
2638.511 
2638.603 
2638.695 
2638.787 
2638.879 
2638.972 
2639.064 
2639.156 
2639.248 
2639.340 
2639.432 
2639.524 
2639.617 
2639.709 
2639.801 
2639.893 
2639.985 
2640.077 
2640.170 
2640.262 
2640.354 
2640.446 
2640.538 
2640.630 
2640.722 
2640.815 
2640.907 
2640.999 
2641.091 
2641.183 
2641.275 
2641.367 
2641.460 
2641.552 
2641.644 
2641.736 
2641.828 
2641.920 
2642.012 
2642.104 
2642.197 
2642.289 
2642.381 
2642.473 
2642.565 
2642.657 
2642.749 
2642.841 
2642.934 
2643.026 
2643.118 
2643.210 
2643.302 
2643.394 
2643.486 
2643.578 
2643.671 
2643.763 
2643.855 
2643.947 
2644.039 
2644.131 
2644.223 
2644.315 
2644.407 
2644.500 
2644.592 
2644.684 
2644.776 
2644.868 
2644.960 
2645.052 
2645.144 
2645.236 
2645.328 
2645.421 
2645.513 
2645.605 
2645.697 
2645.789 
2645.881 
2645.973 
2646.065 
2646.157 
2646.249 
2646.342 
2646.434 
2646.526 
2646.618 
2646.710 
2646.802 
2646.894 
2646.986 
2647.078 
2647.170 
2647.262 
2647.354 
2647.447 
2647.539 
2647.631 
2647.723 
2647.815 
2647.907 
2647.999 
2648.091 
2648.183 
2648.275 
2648.367 
2648.459 
2648.551 
2648.644 
2648.736 
2648.828 
2648.920 
2649.012 
2649.104 
2649.196 
2649.288 
2649.380 
2649.472 
2649.564 
2649.656 
2649.748 
2649.840 
2649.932 
2650.025 
2650.117 
2650.209 
2650.301 
2650.393 
2650.485 
2650.577 
2650.669 
2650.761 
2650.853 
2650.945 
2651.037 
2651.129 
2651.221 
2651.313 
2651.405 
2651.497 
2651.589 
2651.681 
2651.774 
2651.866 
2651.958 
2652.050 
2652.142 
2652.234 
2652.326 
2652.418 
2652.510 
2652.602 
2652.694 
2652.786 
2652.878 
2652.970 
2653.062 
2653.154 
2653.246 
2653.338 
2653.430 
2653.522 
2653.614 
2653.706 
2653.798 
2653.890 
2653.982 
2654.074 
2654.166 
2654.258 
2654.350 
2654.442 
2654.534 
2654.626 
2654.718 
2654.810 
2654.902 
2654.995 
2655.087 
2655.179 
2655.271 
2655.363 
2655.455 
2655.547 
2655.639 
2655.731 
2655.823 
2655.915 
2656.007 
2656.099 
2656.191 
2656.283 
2656.375 
2656.467 
2656.559 
2656.651 
2656.743 
2656.835 
2656.927 
2657.019 
2657.111 
2657.203 
2657.295 
2657.387 
2657.479 
2657.571 
2657.663 
2657.755 
2657.847 
2657.939 
2658.031 
2658.123 
2658.215 
2658.306 
2658.398 
2658.490 
2658.582 
2658.674 
2658.766 
2658.858 
2658.950 
2659.042 
2659.134 
2659.226 
2659.318 
2659.410 
2659.502 
2659.594 
2659.686 
2659.778 
2659.870 
2659.962 
2660.054 
2660.146 
2660.238 
2660.330 
2660.422 
2660.514 
2660.606 
2660.698 
2660.790 
2660.882 
2660.974 
2661.066 
2661.158 
2661.250 
2661.342 
2661.433 
2661.525 
2661.617 
2661.709 
2661.801 
2661.893 
2661.985 
2662.077 
2662.169 
2662.261 
2662.353 
2662.445 
2662.537 
2662.629 
2662.721 
2662.813 
2662.905 
2662.997 
2663.089 
2663.181 
2663.272 
2663.364 
2663.456 
2663.548 
2663.640 
2663.732 
2663.824 
2663.916 
2664.008 
2664.100 
2664.192 
2664.284 
2664.376 
2664.468 
2664.560 
2664.651 
2664.743 
2664.835 
2664.927 
2665.019 
2665.111 
2665.203 
2665.295 
2665.387 
2665.479 
2665.571 
2665.663 
2665.755 
2665.846 
2665.938 
2666.030 
2666.122 
2666.214 
2666.306 
2666.398 
2666.490 
2666.582 
2666.674 
2666.766 
2666.857 
2666.949 
2667.041 
2667.133 
2667.225 
2667.317 
2667.409 
2667.501 
2667.593 
2667.685 
2667.777 
2667.868 
2667.960 
2668.052 
2668.144 
2668.236 
2668.328 
2668.420 
2668.512 
2668.604 
2668.695 
2668.787 
2668.879 
2668.971 
2669.063 
2669.155 
2669.247 
2669.339 
2669.431 
2669.522 
2669.614 
2669.706 
2669.798 
2669.890 
2669.982 
2670.074 
2670.166 
2670.258 
2670.349 
2670.441 
2670.533 
2670.625 
2670.717 
2670.809 
2670.901 
2670.993 
2671.084 
2671.176 
2671.268 
2671.360 
2671.452 
2671.544 
2671.636 
2671.727 
2671.819 
2671.911 
2672.003 
2672.095 
2672.187 
2672.279 
2672.370 
2672.462 
2672.554 
2672.646 
2672.738 
2672.830 
2672.922 
2673.013 
2673.105 
2673.197 
2673.289 
2673.381 
2673.473 
2673.565 
2673.656 
2673.748 
2673.840 
2673.932 
2674.024 
2674.116 
2674.208 
2674.299 
2674.391 
2674.483 
2674.575 
2674.667 
2674.759 
2674.850 
2674.942 
2675.034 
2675.126 
2675.218 
2675.310 
2675.401 
2675.493 
2675.585 
2675.677 
2675.769 
2675.861 
2675.952 
2676.044 
2676.136 
2676.228 
2676.320 
2676.411 
2676.503 
2676.595 
2676.687 
2676.779 
2676.871 
2676.962 
2677.054 
2677.146 
2677.238 
2677.330 
2677.421 
2677.513 
2677.605 
2677.697 
2677.789 
2677.881 
2677.972 
2678.064 
2678.156 
2678.248 
2678.340 
2678.431 
2678.523 
2678.615 
2678.707 
2678.799 
2678.890 
2678.982 
2679.074 
2679.166 
2679.258 
2679.349 
2679.441 
2679.533 
2679.625 
2679.717 
2679.808 
2679.900 
2679.992 
2680.084 
2680.176 
2680.267 
2680.359 
2680.451 
2680.543 
2680.634 
2680.726 
2680.818 
2680.910 
2681.002 
2681.093 
2681.185 
2681.277 
2681.369 
2681.460 
2681.552 
2681.644 
2681.736 
2681.828 
2681.919 
2682.011 
2682.103 
2682.195 
2682.286 
2682.378 
2682.470 
2682.562 
2682.653 
2682.745 
2682.837 
2682.929 
2683.021 
2683.112 
2683.204 
2683.296 
2683.388 
2683.479 
2683.571 
2683.663 
2683.755 
2683.846 
2683.938 
2684.030 
2684.122 
2684.213 
2684.305 
2684.397 
2684.489 
2684.580 
2684.672 
2684.764 
2684.856 
2684.947 
2685.039 
2685.131 
2685.223 
2685.314 
2685.406 
2685.498 
2685.590 
2685.681 
2685.773 
2685.865 
2685.957 
2686.048 
2686.140 
2686.232 
2686.323 
2686.415 
2686.507 
2686.599 
2686.690 
2686.782 
2686.874 
2686.966 
2687.057 
2687.149 
2687.241 
2687.333 
2687.424 
2687.516 
2687.608 
2687.699 
2687.791 
2687.883 
2687.975 
2688.066 
2688.158 
2688.250 
2688.341 
2688.433 
2688.525 
2688.617 
2688.708 
2688.800 
2688.892 
2688.983 
2689.075 
2689.167 
2689.259 
2689.350 
2689.442 
2689.534 
2689.625 
2689.717 
2689.809 
2689.900 
2689.992 
2690.084 
2690.176 
2690.267 
2690.359 
2690.451 
2690.542 
2690.634 
2690.726 
2690.817 
2690.909 
2691.001 
2691.093 
2691.184 
2691.276 
2691.368 
2691.459 
2691.551 
2691.643 
2691.734 
2691.826 
2691.918 
2692.009 
2692.101 
2692.193 
2692.284 
2692.376 
2692.468 
2692.559 
2692.651 
2692.743 
2692.834 
2692.926 
2693.018 
2693.110 
2693.201 
2693.293 
2693.385 
2693.476 
2693.568 
2693.660 
2693.751 
2693.843 
2693.935 
2694.026 
2694.118 
2694.210 
2694.301 
2694.393 
2694.485 
2694.576 
2694.668 
2694.759 
2694.851 
2694.943 
2695.034 
2695.126 
2695.218 
2695.309 
2695.401 
2695.493 
2695.584 
2695.676 
2695.768 
2695.859 
2695.951 
2696.043 
2696.134 
2696.226 
2696.318 
2696.409 
2696.501 
2696.592 
2696.684 
2696.776 
2696.867 
2696.959 
2697.051 
2697.142 
2697.234 
2697.326 
2697.417 
2697.509 
2697.600 
2697.692 
2697.784 
2697.875 
2697.967 
2698.059 
2698.150 
2698.242 
2698.334 
2698.425 
2698.517 
2698.608 
2698.700 
2698.792 
2698.883 
2698.975 
2699.066 
2699.158 
2699.250 
2699.341 
2699.433 
2699.525 
2699.616 
2699.708 
2699.799 
2699.891 
2699.983 
2700.074 
2700.166 
2700.257 
2700.349 
2700.441 
2700.532 
2700.624 
2700.715 
2700.807 
2700.899 
2700.990 
2701.082 
2701.174 
2701.265 
2701.357 
2701.448 
2701.540 
2701.631 
2701.723 
2701.815 
2701.906 
2701.998 
2702.089 
2702.181 
2702.273 
2702.364 
2702.456 
2702.547 
2702.639 
2702.731 
2702.822 
2702.914 
2703.005 
2703.097 
2703.189 
2703.280 
2703.372 
2703.463 
2703.555 
2703.646 
2703.738 
2703.830 
2703.921 
2704.013 
2704.104 
2704.196 
2704.287 
2704.379 
2704.471 
2704.562 
2704.654 
2704.745 
2704.837 
2704.928 
2705.020 
2705.112 
2705.203 
2705.295 
2705.386 
2705.478 
2705.569 
2705.661 
2705.752 
2705.844 
2705.936 
2706.027 
2706.119 
2706.210 
2706.302 
2706.393 
2706.485 
2706.576 
2706.668 
2706.760 
2706.851 
2706.943 
2707.034 
2707.126 
2707.217 
2707.309 
2707.400 
2707.492 
2707.583 
2707.675 
2707.767 
2707.858 
2707.950 
2708.041 
2708.133 
2708.224 
2708.316 
2708.407 
2708.499 
2708.590 
2708.682 
2708.773 
2708.865 
2708.957 
2709.048 
2709.140 
2709.231 
2709.323 
2709.414 
2709.506 
2709.597 
2709.689 
2709.780 
2709.872 
2709.963 
2710.055 
2710.146 
2710.238 
2710.329 
2710.421 
2710.512 
2710.604 
2710.695 
2710.787 
2710.878 
2710.970 
2711.062 
2711.153 
2711.245 
2711.336 
2711.428 
2711.519 
2711.611 
2711.702 
2711.794 
2711.885 
2711.977 
2712.068 
2712.160 
2712.251 
2712.343 
2712.434 
2712.526 
2712.617 
2712.709 
2712.800 
2712.892 
2712.983 
2713.075 
2713.166 
2713.258 
2713.349 
2713.441 
2713.532 
2713.623 
2713.715 
2713.806 
2713.898 
2713.989 
2714.081 
2714.172 
2714.264 
2714.355 
2714.447 
2714.538 
2714.630 
2714.721 
2714.813 
2714.904 
2714.996 
2715.087 
2715.179 
2715.270 
2715.362 
2715.453 
2715.545 
2715.636 
2715.728 
2715.819 
2715.910 
2716.002 
2716.093 
2716.185 
2716.276 
2716.368 
2716.459 
2716.551 
2716.642 
2716.734 
2716.825 
2716.917 
2717.008 
2717.099 
2717.191 
2717.282 
2717.374 
2717.465 
2717.557 
2717.648 
2717.740 
2717.831 
2717.923 
2718.014 
2718.105 
2718.197 
2718.288 
2718.380 
2718.471 
2718.563 
2718.654 
2718.746 
2718.837 
2718.928 
2719.020 
2719.111 
2719.203 
2719.294 
2719.386 
2719.477 
2719.568 
2719.660 
2719.751 
2719.843 
2719.934 
2720.026 
2720.117 
2720.208 
2720.300 
2720.391 
2720.483 
2720.574 
2720.666 
2720.757 
2720.848 
2720.940 
2721.031 
2721.123 
2721.214 
2721.306 
2721.397 
2721.488 
2721.580 
2721.671 
2721.763 
2721.854 
2721.945 
2722.037 
2722.128 
2722.220 
2722.311 
2722.403 
2722.494 
2722.585 
2722.677 
2722.768 
2722.860 
2722.951 
2723.042 
2723.134 
2723.225 
2723.317 
2723.408 
2723.499 
2723.591 
2723.682 
2723.774 
2723.865 
2723.956 
2724.048 
2724.139 
2724.231 
2724.322 
2724.413 
2724.505 
2724.596 
2724.688 
2724.779 
2724.870 
2724.962 
2725.053 
2725.144 
2725.236 
2725.327 
2725.419 
2725.510 
2725.601 
2725.693 
2725.784 
2725.875 
2725.967 
2726.058 
2726.150 
2726.241 
2726.332 
2726.424 
2726.515 
2726.606 
2726.698 
2726.789 
2726.881 
2726.972 
2727.063 
2727.155 
2727.246 
2727.337 
2727.429 
2727.520 
2727.612 
2727.703 
2727.794 
2727.886 
2727.977 
2728.068 
2728.160 
2728.251 
2728.342 
2728.434 
2728.525 
2728.616 
2728.708 
2728.799 
2728.891 
2728.982 
2729.073 
2729.165 
2729.256 
2729.347 
2729.439 
2729.530 
2729.621 
2729.713 
2729.804 
2729.895 
2729.987 
2730.078 
2730.169 
2730.261 
2730.352 
2730.443 
2730.535 
2730.626 
2730.717 
2730.809 
2730.900 
2730.991 
2731.083 
2731.174 
2731.265 
2731.357 
2731.448 
2731.539 
2731.631 
2731.722 
2731.813 
2731.905 
2731.996 
2732.087 
2732.179 
2732.270 
2732.361 
2732.453 
2732.544 
2732.635 
2732.727 
2732.818 
2732.909 
2733.000 
2733.092 
2733.183 
2733.274 
2733.366 
2733.457 
2733.548 
2733.640 
2733.731 
2733.822 
2733.914 
2734.005 
2734.096 
2734.187 
2734.279 
2734.370 
2734.461 
2734.553 
2734.644 
2734.735 
2734.827 
2734.918 
2735.009 
2735.100 
2735.192 
2735.283 
2735.374 
2735.466 
2735.557 
2735.648 
2735.739 
2735.831 
2735.922 
2736.013 
2736.105 
2736.196 
2736.287 
2736.378 
2736.470 
2736.561 
2736.652 
2736.744 
2736.835 
2736.926 
2737.017 
2737.109 
2737.200 
2737.291 
2737.383 
2737.474 
2737.565 
2737.656 
2737.748 
2737.839 
2737.930 
2738.021 
2738.113 
2738.204 
2738.295 
2738.387 
2738.478 
2738.569 
2738.660 
2738.752 
2738.843 
2738.934 
2739.025 
2739.117 
2739.208 
2739.299 
2739.390 
2739.482 
2739.573 
2739.664 
2739.755 
2739.847 
2739.938 
2740.029 
2740.120 
2740.212 
2740.303 
2740.394 
2740.485 
2740.577 
2740.668 
2740.759 
2740.850 
2740.942 
2741.033 
2741.124 
2741.215 
2741.307 
2741.398 
2741.489 
2741.580 
2741.672 
2741.763 
2741.854 
2741.945 
2742.036 
2742.128 
2742.219 
2742.310 
2742.401 
2742.493 
2742.584 
2742.675 
2742.766 
2742.858 
2742.949 
2743.040 
2743.131 
2743.222 
2743.314 
2743.405 
2743.496 
2743.587 
2743.678 
2743.770 
2743.861 
2743.952 
2744.043 
2744.135 
2744.226 
2744.317 
2744.408 
2744.499 
2744.591 
2744.682 
2744.773 
2744.864 
2744.955 
2745.047 
2745.138 
2745.229 
2745.320 
2745.411 
2745.503 
2745.594 
2745.685 
2745.776 
2745.867 
2745.959 
2746.050 
2746.141 
2746.232 
2746.323 
2746.415 
2746.506 
2746.597 
2746.688 
2746.779 
2746.871 
2746.962 
2747.053 
2747.144 
2747.235 
2747.327 
2747.418 
2747.509 
2747.600 
2747.691 
2747.782 
2747.874 
2747.965 
2748.056 
2748.147 
2748.238 
2748.329 
2748.421 
2748.512 
2748.603 
2748.694 
2748.785 
2748.877 
2748.968 
2749.059 
2749.150 
2749.241 
2749.332 
2749.424 
2749.515 
2749.606 
2749.697 
2749.788 
2749.879 
2749.971 
2750.062 
2750.153 
2750.244 
2750.335 
2750.426 
2750.517 
2750.609 
2750.700 
2750.791 
2750.882 
2750.973 
2751.064 
2751.156 
2751.247 
2751.338 
2751.429 
2751.520 
2751.611 
2751.702 
2751.794 
2751.885 
2751.976 
2752.067 
2752.158 
2752.249 
2752.340 
2752.432 
2752.523 
2752.614 
2752.705 
2752.796 
2752.887 
2752.978 
2753.069 
2753.161 
2753.252 
2753.343 
2753.434 
2753.525 
2753.616 
2753.707 
2753.799 
2753.890 
2753.981 
2754.072 
2754.163 
2754.254 
2754.345 
2754.436 
2754.527 
2754.619 
2754.710 
2754.801 
2754.892 
2754.983 
2755.074 
2755.165 
2755.256 
2755.348 
2755.439 
2755.530 
2755.621 
2755.712 
2755.803 
2755.894 
2755.985 
2756.076 
2756.168 
2756.259 
2756.350 
2756.441 
2756.532 
2756.623 
2756.714 
2756.805 
2756.896 
2756.987 
2757.079 
2757.170 
2757.261 
2757.352 
2757.443 
2757.534 
2757.625 
2757.716 
2757.807 
2757.898 
2757.989 
2758.081 
2758.172 
2758.263 
2758.354 
2758.445 
2758.536 
2758.627 
2758.718 
2758.809 
2758.900 
2758.991 
2759.082 
2759.174 
2759.265 
2759.356 
2759.447 
2759.538 
2759.629 
2759.720 
2759.811 
2759.902 
2759.993 
2760.084 
2760.175 
2760.266 
2760.357 
2760.449 
2760.540 
2760.631 
2760.722 
2760.813 
2760.904 
2760.995 
2761.086 
2761.177 
2761.268 
2761.359 
2761.450 
2761.541 
2761.632 
2761.723 
2761.814 
2761.905 
2761.996 
2762.088 
2762.179 
2762.270 
2762.361 
2762.452 
2762.543 
2762.634 
2762.725 
2762.816 
2762.907 
2762.998 
2763.089 
2763.180 
2763.271 
2763.362 
2763.453 
2763.544 
2763.635 
2763.726 
2763.817 
2763.908 
2763.999 
2764.090 
2764.181 
2764.273 
2764.364 
2764.455 
2764.546 
2764.637 
2764.728 
2764.819 
2764.910 
2765.001 
2765.092 
2765.183 
2765.274 
2765.365 
2765.456 
2765.547 
2765.638 
2765.729 
2765.820 
2765.911 
2766.002 
2766.093 
2766.184 
2766.275 
2766.366 
2766.457 
2766.548 
2766.639 
2766.730 
2766.821 
2766.912 
2767.003 
2767.094 
2767.185 
2767.276 
2767.367 
2767.458 
2767.549 
2767.640 
2767.731 
2767.822 
2767.913 
2768.004 
2768.095 
2768.186 
2768.277 
2768.368 
2768.459 
2768.550 
2768.641 
2768.732 
2768.823 
2768.914 
2769.005 
2769.096 
2769.187 
2769.278 
2769.369 
2769.460 
2769.551 
2769.642 
2769.733 
2769.824 
2769.915 
2770.006 
2770.097 
2770.188 
2770.279 
2770.370 
2770.461 
2770.552 
2770.643 
2770.734 
2770.825 
2770.916 
2771.007 
2771.098 
2771.189 
2771.279 
2771.370 
2771.461 
2771.552 
2771.643 
2771.734 
2771.825 
2771.916 
2772.007 
2772.098 
2772.189 
2772.280 
2772.371 
2772.462 
2772.553 
2772.644 
2772.735 
2772.826 
2772.917 
2773.008 
2773.099 
2773.190 
2773.281 
2773.372 
2773.462 
2773.553 
2773.644 
2773.735 
2773.826 
2773.917 
2774.008 
2774.099 
2774.190 
2774.281 
2774.372 
2774.463 
2774.554 
2774.645 
2774.736 
2774.827 
2774.918 
2775.008 
2775.099 
2775.190 
2775.281 
2775.372 
2775.463 
2775.554 
2775.645 
2775.736 
2775.827 
2775.918 
2776.009 
2776.100 
2776.191 
2776.281 
2776.372 
2776.463 
2776.554 
2776.645 
2776.736 
2776.827 
2776.918 
2777.009 
2777.100 
2777.191 
2777.282 
2777.372 
2777.463 
2777.554 
2777.645 
2777.736 
2777.827 
2777.918 
2778.009 
2778.100 
2778.191 
2778.282 
2778.372 
2778.463 
2778.554 
2778.645 
2778.736 
2778.827 
2778.918 
2779.009 
2779.100 
2779.191 
2779.281 
2779.372 
2779.463 
2779.554 
2779.645 
2779.736 
2779.827 
2779.918 
2780.009 
2780.099 
2780.190 
2780.281 
2780.372 
2780.463 
2780.554 
2780.645 
2780.736 
2780.827 
2780.917 
2781.008 
2781.099 
2781.190 
2781.281 
2781.372 
2781.463 
2781.554 
2781.644 
2781.735 
2781.826 
2781.917 
2782.008 
2782.099 
2782.190 
2782.281 
2782.371 
2782.462 
2782.553 
2782.644 
2782.735 
2782.826 
2782.917 
2783.007 
2783.098 
2783.189 
2783.280 
2783.371 
2783.462 
2783.553 
2783.643 
2783.734 
2783.825 
2783.916 
2784.007 
2784.098 
2784.189 
2784.279 
2784.370 
2784.461 
2784.552 
2784.643 
2784.734 
2784.825 
2784.915 
2785.006 
2785.097 
2785.188 
2785.279 
2785.370 
2785.460 
2785.551 
2785.642 
2785.733 
2785.824 
2785.915 
2786.005 
2786.096 
2786.187 
2786.278 
2786.369 
2786.460 
2786.550 
2786.641 
2786.732 
2786.823 
2786.914 
2787.005 
2787.095 
2787.186 
2787.277 
2787.368 
2787.459 
2787.549 
2787.640 
2787.731 
2787.822 
2787.913 
2788.004 
2788.094 
2788.185 
2788.276 
2788.367 
2788.458 
2788.548 
2788.639 
2788.730 
2788.821 
2788.912 
2789.002 
2789.093 
2789.184 
2789.275 
2789.366 
2789.457 
2789.547 
2789.638 
2789.729 
2789.820 
2789.911 
2790.001 
2790.092 
2790.183 
2790.274 
2790.365 
2790.455 
2790.546 
2790.637 
2790.728 
2790.818 
2790.909 
2791.000 
2791.091 
2791.182 
2791.272 
2791.363 
2791.454 
2791.545 
2791.636 
2791.726 
2791.817 
2791.908 
2791.999 
2792.089 
2792.180 
2792.271 
2792.362 
2792.453 
2792.543 
2792.634 
2792.725 
2792.816 
2792.906 
2792.997 
2793.088 
2793.179 
2793.270 
2793.360 
2793.451 
2793.542 
2793.633 
2793.723 
2793.814 
2793.905 
2793.996 
2794.086 
2794.177 
2794.268 
2794.359 
2794.449 
2794.540 
2794.631 
2794.722 
2794.812 
2794.903 
2794.994 
2795.085 
2795.175 
2795.266 
2795.357 
2795.448 
2795.538 
2795.629 
2795.720 
2795.811 
2795.901 
2795.992 
2796.083 
2796.174 
2796.264 
2796.355 
2796.446 
2796.537 
2796.627 
2796.718 
2796.809 
2796.900 
2796.990 
2797.081 
2797.172 
2797.263 
2797.353 
2797.444 
2797.535 
2797.625 
2797.716 
2797.807 
2797.898 
2797.988 
2798.079 
2798.170 
2798.261 
2798.351 
2798.442 
2798.533 
2798.623 
2798.714 
2798.805 
2798.896 
2798.986 
2799.077 
2799.168 
2799.258 
2799.349 
2799.440 
2799.531 
2799.621 
2799.712 
2799.803 
2799.893 
2799.984 
2800.075 
2800.166 
2800.256 
2800.347 
2800.438 
2800.528 
2800.619 
2800.710 
2800.800 
2800.891 
2800.982 
2801.073 
2801.163 
2801.254 
2801.345 
2801.435 
2801.526 
2801.617 
2801.707 
2801.798 
2801.889 
2801.979 
2802.070 
2802.161 
2802.252 
2802.342 
2802.433 
2802.524 
2802.614 
2802.705 
2802.796 
2802.886 
2802.977 
2803.068 
2803.158 
2803.249 
2803.340 
2803.430 
2803.521 
2803.612 
2803.702 
2803.793 
2803.884 
2803.974 
2804.065 
2804.156 
2804.246 
2804.337 
2804.428 
2804.518 
2804.609 
2804.700 
2804.790 
2804.881 
2804.972 
2805.062 
2805.153 
2805.244 
2805.334 
2805.425 
2805.516 
2805.606 
2805.697 
2805.788 
2805.878 
2805.969 
2806.060 
2806.150 
2806.241 
2806.332 
2806.422 
2806.513 
2806.604 
2806.694 
2806.785 
2806.876 
2806.966 
2807.057 
2807.147 
2807.238 
2807.329 
2807.419 
2807.510 
2807.601 
2807.691 
2807.782 
2807.873 
2807.963 
2808.054 
2808.144 
2808.235 
2808.326 
2808.416 
2808.507 
2808.598 
2808.688 
2808.779 
2808.869 
2808.960 
2809.051 
2809.141 
2809.232 
2809.323 
2809.413 
2809.504 
2809.594 
2809.685 
2809.776 
2809.866 
2809.957 
2810.048 
2810.138 
2810.229 
2810.319 
2810.410 
2810.501 
2810.591 
2810.682 
2810.772 
2810.863 
2810.954 
2811.044 
2811.135 
2811.226 
2811.316 
2811.407 
2811.497 
2811.588 
2811.679 
2811.769 
2811.860 
2811.950 
2812.041 
2812.132 
2812.222 
2812.313 
2812.403 
2812.494 
2812.584 
2812.675 
2812.766 
2812.856 
2812.947 
2813.037 
2813.128 
2813.219 
2813.309 
2813.400 
2813.490 
2813.581 
2813.672 
2813.762 
2813.853 
2813.943 
2814.034 
2814.124 
2814.215 
2814.306 
2814.396 
2814.487 
2814.577 
2814.668 
2814.758 
2814.849 
2814.940 
2815.030 
2815.121 
2815.211 
2815.302 
2815.392 
2815.483 
2815.574 
2815.664 
2815.755 
2815.845 
2815.936 
2816.026 
2816.117 
2816.208 
2816.298 
2816.389 
2816.479 
2816.570 
2816.660 
2816.751 
2816.841 
2816.932 
2817.023 
2817.113 
2817.204 
2817.294 
2817.385 
2817.475 
2817.566 
2817.656 
2817.747 
2817.837 
2817.928 
2818.019 
2818.109 
2818.200 
2818.290 
2818.381 
2818.471 
2818.562 
2818.652 
2818.743 
2818.833 
2818.924 
2819.015 
2819.105 
2819.196 
2819.286 
2819.377 
2819.467 
2819.558 
2819.648 
2819.739 
2819.829 
2819.920 
2820.010 
2820.101 
2820.191 
2820.282 
2820.372 
2820.463 
2820.553 
2820.644 
2820.735 
2820.825 
2820.916 
2821.006 
2821.097 
2821.187 
2821.278 
2821.368 
2821.459 
2821.549 
2821.640 
2821.730 
2821.821 
2821.911 
2822.002 
2822.092 
2822.183 
2822.273 
2822.364 
2822.454 
2822.545 
2822.635 
2822.726 
2822.816 
2822.907 
2822.997 
2823.088 
2823.178 
2823.269 
2823.359 
2823.450 
2823.540 
2823.631 
2823.721 
2823.812 
2823.902 
2823.993 
2824.083 
2824.174 
2824.264 
2824.355 
2824.445 
2824.536 
2824.626 
2824.717 
2824.807 
2824.898 
2824.988 
2825.078 
2825.169 
2825.259 
2825.350 
2825.440 
2825.531 
2825.621 
2825.712 
2825.802 
2825.893 
2825.983 
2826.074 
2826.164 
2826.255 
2826.345 
2826.436 
2826.526 
2826.616 
2826.707 
2826.797 
2826.888 
2826.978 
2827.069 
2827.159 
2827.250 
2827.340 
2827.431 
2827.521 
2827.612 
2827.702 
2827.792 
2827.883 
2827.973 
2828.064 
2828.154 
2828.245 
2828.335 
2828.426 
2828.516 
2828.607 
2828.697 
2828.787 
2828.878 
2828.968 
2829.059 
2829.149 
2829.240 
2829.330 
2829.421 
2829.511 
2829.601 
2829.692 
2829.782 
2829.873 
2829.963 
2830.054 
2830.144 
2830.234 
2830.325 
2830.415 
2830.506 
2830.596 
2830.687 
2830.777 
2830.867 
2830.958 
2831.048 
2831.139 
2831.229 
2831.320 
2831.410 
2831.500 
2831.591 
2831.681 
2831.772 
2831.862 
2831.953 
2832.043 
2832.133 
2832.224 
2832.314 
2832.405 
2832.495 
2832.585 
2832.676 
2832.766 
2832.857 
2832.947 
2833.037 
2833.128 
2833.218 
2833.309 
2833.399 
2833.489 
2833.580 
2833.670 
2833.761 
2833.851 
2833.941 
2834.032 
2834.122 
2834.213 
2834.303 
2834.393 
2834.484 
2834.574 
2834.665 
2834.755 
2834.845 
2834.936 
2835.026 
2835.117 
2835.207 
2835.297 
2835.388 
2835.478 
2835.569 
2835.659 
2835.749 
2835.840 
2835.930 
2836.020 
2836.111 
2836.201 
2836.292 
2836.382 
2836.472 
2836.563 
2836.653 
2836.743 
2836.834 
2836.924 
2837.015 
2837.105 
2837.195 
2837.286 
2837.376 
2837.466 
2837.557 
2837.647 
2837.737 
2837.828 
2837.918 
2838.009 
2838.099 
2838.189 
2838.280 
2838.370 
2838.460 
2838.551 
2838.641 
2838.731 
2838.822 
2838.912 
2839.003 
2839.093 
2839.183 
2839.274 
2839.364 
2839.454 
2839.545 
2839.635 
2839.725 
2839.816 
2839.906 
2839.996 
2840.087 
2840.177 
2840.267 
2840.358 
2840.448 
2840.538 
2840.629 
2840.719 
2840.809 
2840.900 
2840.990 
2841.080 
2841.171 
2841.261 
2841.351 
2841.442 
2841.532 
2841.622 
2841.713 
2841.803 
2841.893 
2841.984 
2842.074 
2842.164 
2842.255 
2842.345 
2842.435 
2842.526 
2842.616 
2842.706 
2842.797 
2842.887 
2842.977 
2843.068 
2843.158 
2843.248 
2843.338 
2843.429 
2843.519 
2843.609 
2843.700 
2843.790 
2843.880 
2843.971 
2844.061 
2844.151 
2844.242 
2844.332 
2844.422 
2844.512 
2844.603 
2844.693 
2844.783 
2844.874 
2844.964 
2845.054 
2845.145 
2845.235 
2845.325 
2845.415 
2845.506 
2845.596 
2845.686 
2845.777 
2845.867 
2845.957 
2846.047 
2846.138 
2846.228 
2846.318 
2846.409 
2846.499 
2846.589 
2846.679 
2846.770 
2846.860 
2846.950 
2847.041 
2847.131 
2847.221 
2847.311 
2847.402 
2847.492 
2847.582 
2847.673 
2847.763 
2847.853 
2847.943 
2848.034 
2848.124 
2848.214 
2848.304 
2848.395 
2848.485 
2848.575 
2848.666 
2848.756 
2848.846 
2848.936 
2849.027 
2849.117 
2849.207 
2849.297 
2849.388 
2849.478 
2849.568 
2849.658 
2849.749 
2849.839 
2849.929 
2850.019 
2850.110 
2850.200 
2850.290 
2850.380 
2850.471 
2850.561 
2850.651 
2850.741 
2850.832 
2850.922 
2851.012 
2851.102 
2851.193 
2851.283 
2851.373 
2851.463 
2851.554 
2851.644 
2851.734 
2851.824 
2851.914 
2852.005 
2852.095 
2852.185 
2852.275 
2852.366 
2852.456 
2852.546 
2852.636 
2852.727 
2852.817 
2852.907 
2852.997 
2853.087 
2853.178 
2853.268 
2853.358 
2853.448 
2853.539 
2853.629 
2853.719 
2853.809 
2853.899 
2853.990 
2854.080 
2854.170 
2854.260 
2854.351 
2854.441 
2854.531 
2854.621 
2854.711 
2854.802 
2854.892 
2854.982 
2855.072 
2855.162 
2855.253 
2855.343 
2855.433 
2855.523 
2855.613 
2855.704 
2855.794 
2855.884 
2855.974 
2856.064 
2856.155 
2856.245 
2856.335 
2856.425 
2856.515 
2856.606 
2856.696 
2856.786 
2856.876 
2856.966 
2857.057 
2857.147 
2857.237 
2857.327 
2857.417 
2857.507 
2857.598 
2857.688 
2857.778 
2857.868 
2857.958 
2858.049 
2858.139 
2858.229 
2858.319 
2858.409 
2858.499 
2858.590 
2858.680 
2858.770 
2858.860 
2858.950 
2859.040 
2859.131 
2859.221 
2859.311 
2859.401 
2859.491 
2859.581 
2859.672 
2859.762 
2859.852 
2859.942 
2860.032 
2860.122 
2860.213 
2860.303 
2860.393 
2860.483 
2860.573 
2860.663 
2860.754 
2860.844 
2860.934 
2861.024 
2861.114 
2861.204 
2861.294 
2861.385 
2861.475 
2861.565 
2861.655 
2861.745 
2861.835 
2861.925 
2862.016 
2862.106 
2862.196 
2862.286 
2862.376 
2862.466 
2862.556 
2862.647 
2862.737 
2862.827 
2862.917 
2863.007 
2863.097 
2863.187 
2863.278 
2863.368 
2863.458 
2863.548 
2863.638 
2863.728 
2863.818 
2863.908 
2863.999 
2864.089 
2864.179 
2864.269 
2864.359 
2864.449 
2864.539 
2864.629 
2864.720 
2864.810 
2864.900 
2864.990 
2865.080 
2865.170 
2865.260 
2865.350 
2865.440 
2865.531 
2865.621 
2865.711 
2865.801 
2865.891 
2865.981 
2866.071 
2866.161 
2866.251 
2866.341 
2866.432 
2866.522 
2866.612 
2866.702 
2866.792 
2866.882 
2866.972 
2867.062 
2867.152 
2867.242 
2867.333 
2867.423 
2867.513 
2867.603 
2867.693 
2867.783 
2867.873 
2867.963 
2868.053 
2868.143 
2868.233 
2868.324 
2868.414 
2868.504 
2868.594 
2868.684 
2868.774 
2868.864 
2868.954 
2869.044 
2869.134 
2869.224 
2869.314 
2869.405 
2869.495 
2869.585 
2869.675 
2869.765 
2869.855 
2869.945 
2870.035 
2870.125 
2870.215 
2870.305 
2870.395 
2870.485 
2870.575 
2870.665 
2870.756 
2870.846 
2870.936 
2871.026 
2871.116 
2871.206 
2871.296 
2871.386 
2871.476 
2871.566 
2871.656 
2871.746 
2871.836 
2871.926 
2872.016 
2872.106 
2872.196 
2872.286 
2872.377 
2872.467 
2872.557 
2872.647 
2872.737 
2872.827 
2872.917 
2873.007 
2873.097 
2873.187 
2873.277 
2873.367 
2873.457 
2873.547 
2873.637 
2873.727 
2873.817 
2873.907 
2873.997 
2874.087 
2874.177 
2874.267 
2874.357 
2874.447 
2874.537 
2874.627 
2874.718 
2874.808 
2874.898 
2874.988 
2875.078 
2875.168 
2875.258 
2875.348 
2875.438 
2875.528 
2875.618 
2875.708 
2875.798 
2875.888 
2875.978 
2876.068 
2876.158 
2876.248 
2876.338 
2876.428 
2876.518 
2876.608 
2876.698 
2876.788 
2876.878 
2876.968 
2877.058 
2877.148 
2877.238 
2877.328 
2877.418 
2877.508 
2877.598 
2877.688 
2877.778 
2877.868 
2877.958 
2878.048 
2878.138 
2878.228 
2878.318 
2878.408 
2878.498 
2878.588 
2878.678 
2878.768 
2878.858 
2878.948 
2879.038 
2879.128 
2879.218 
2879.308 
2879.398 
2879.488 
2879.578 
2879.668 
2879.758 
2879.848 
2879.938 
2880.028 
2880.118 
2880.208 
2880.298 
2880.388 
2880.478 
2880.567 
2880.657 
2880.747 
2880.837 
2880.927 
2881.017 
2881.107 
2881.197 
2881.287 
2881.377 
2881.467 
2881.557 
2881.647 
2881.737 
2881.827 
2881.917 
2882.007 
2882.097 
2882.187 
2882.277 
2882.367 
2882.457 
2882.547 
2882.637 
2882.727 
2882.817 
2882.906 
2882.996 
2883.086 
2883.176 
2883.266 
2883.356 
2883.446 
2883.536 
2883.626 
2883.716 
2883.806 
2883.896 
2883.986 
2884.076 
2884.166 
2884.256 
2884.346 
2884.436 
2884.525 
2884.615 
2884.705 
2884.795 
2884.885 
2884.975 
2885.065 
2885.155 
2885.245 
2885.335 
2885.425 
2885.515 
2885.605 
2885.695 
2885.785 
2885.874 
2885.964 
2886.054 
2886.144 
2886.234 
2886.324 
2886.414 
2886.504 
2886.594 
2886.684 
2886.774 
2886.864 
2886.953 
2887.043 
2887.133 
2887.223 
2887.313 
2887.403 
2887.493 
2887.583 
2887.673 
2887.763 
2887.853 
2887.942 
2888.032 
2888.122 
2888.212 
2888.302 
2888.392 
2888.482 
2888.572 
2888.662 
2888.752 
2888.841 
2888.931 
2889.021 
2889.111 
2889.201 
2889.291 
2889.381 
2889.471 
2889.561 
2889.651 
2889.740 
2889.830 
2889.920 
2890.010 
2890.100 
2890.190 
2890.280 
2890.370 
2890.460 
2890.549 
2890.639 
2890.729 
2890.819 
2890.909 
2890.999 
2891.089 
2891.179 
2891.268 
2891.358 
2891.448 
2891.538 
2891.628 
2891.718 
2891.808 
2891.898 
2891.987 
2892.077 
2892.167 
2892.257 
2892.347 
2892.437 
2892.527 
2892.616 
2892.706 
2892.796 
2892.886 
2892.976 
2893.066 
2893.156 
2893.245 
2893.335 
2893.425 
2893.515 
2893.605 
2893.695 
2893.785 
2893.874 
2893.964 
2894.054 
2894.144 
2894.234 
2894.324 
2894.414 
2894.503 
2894.593 
2894.683 
2894.773 
2894.863 
2894.953 
2895.042 
2895.132 
2895.222 
2895.312 
2895.402 
2895.492 
2895.581 
2895.671 
2895.761 
2895.851 
2895.941 
2896.031 
2896.120 
2896.210 
2896.300 
2896.390 
2896.480 
2896.570 
2896.659 
2896.749 
2896.839 
2896.929 
2897.019 
2897.109 
2897.198 
2897.288 
2897.378 
2897.468 
2897.558 
2897.647 
2897.737 
2897.827 
2897.917 
2898.007 
2898.097 
2898.186 
2898.276 
2898.366 
2898.456 
2898.546 
2898.635 
2898.725 
2898.815 
2898.905 
2898.995 
2899.084 
2899.174 
2899.264 
2899.354 
2899.444 
2899.533 
2899.623 
2899.713 
2899.803 
2899.893 
2899.982 
2900.072 
2900.162 
2900.252 
2900.342 
2900.431 
2900.521 
2900.611 
2900.701 
2900.791 
2900.880 
2900.970 
2901.060 
2901.150 
2901.239 
2901.329 
2901.419 
2901.509 
2901.599 
2901.688 
2901.778 
2901.868 
2901.958 
2902.047 
2902.137 
2902.227 
2902.317 
2902.407 
2902.496 
2902.586 
2902.676 
2902.766 
2902.855 
2902.945 
2903.035 
2903.125 
2903.214 
2903.304 
2903.394 
2903.484 
2903.574 
2903.663 
2903.753 
2903.843 
2903.933 
2904.022 
2904.112 
2904.202 
2904.292 
2904.381 
2904.471 
2904.561 
2904.651 
2904.740 
2904.830 
2904.920 
2905.010 
2905.099 
2905.189 
2905.279 
2905.369 
2905.458 
2905.548 
2905.638 
2905.728 
2905.817 
2905.907 
2905.997 
2906.087 
2906.176 
2906.266 
2906.356 
2906.445 
2906.535 
2906.625 
2906.715 
2906.804 
2906.894 
2906.984 
2907.074 
2907.163 
2907.253 
2907.343 
2907.433 
2907.522 
2907.612 
2907.702 
2907.791 
2907.881 
2907.971 
2908.061 
2908.150 
2908.240 
2908.330 
2908.419 
2908.509 
2908.599 
2908.689 
2908.778 
2908.868 
2908.958 
2909.047 
2909.137 
2909.227 
2909.317 
2909.406 
2909.496 
2909.586 
2909.675 
2909.765 
2909.855 
2909.945 
2910.034 
2910.124 
2910.214 
2910.303 
2910.393 
2910.483 
2910.572 
2910.662 
2910.752 
2910.842 
2910.931 
2911.021 
2911.111 
2911.200 
2911.290 
2911.380 
2911.469 
2911.559 
2911.649 
2911.738 
2911.828 
2911.918 
2912.008 
2912.097 
2912.187 
2912.277 
2912.366 
2912.456 
2912.546 
2912.635 
2912.725 
2912.815 
2912.904 
2912.994 
2913.084 
2913.173 
2913.263 
2913.353 
2913.442 
2913.532 
2913.622 
2913.711 
2913.801 
2913.891 
2913.980 
2914.070 
2914.160 
2914.249 
2914.339 
2914.429 
2914.518 
2914.608 
2914.698 
2914.787 
2914.877 
2914.967 
2915.056 
2915.146 
2915.236 
2915.325 
2915.415 
2915.505 
2915.594 
2915.684 
2915.774 
2915.863 
2915.953 
2916.042 
2916.132 
2916.222 
2916.311 
2916.401 
2916.491 
2916.580 
2916.670 
2916.760 
2916.849 
2916.939 
2917.029 
2917.118 
2917.208 
2917.297 
2917.387 
2917.477 
2917.566 
2917.656 
2917.746 
2917.835 
2917.925 
2918.015 
2918.104 
2918.194 
2918.283 
2918.373 
2918.463 
2918.552 
2918.642 
2918.732 
2918.821 
2918.911 
2919.000 
2919.090 
2919.180 
2919.269 
2919.359 
2919.448 
2919.538 
2919.628 
2919.717 
2919.807 
2919.897 
2919.986 
2920.076 
2920.165 
2920.255 
2920.345 
2920.434 
2920.524 
2920.613 
2920.703 
2920.793 
2920.882 
2920.972 
2921.061 
2921.151 
2921.241 
2921.330 
2921.420 
2921.509 
2921.599 
2921.689 
2921.778 
2921.868 
2921.957 
2922.047 
2922.137 
2922.226 
2922.316 
2922.405 
2922.495 
2922.585 
2922.674 
2922.764 
2922.853 
2922.943 
2923.032 
2923.122 
2923.212 
2923.301 
2923.391 
2923.480 
2923.570 
2923.660 
2923.749 
2923.839 
2923.928 
2924.018 
2924.107 
2924.197 
2924.287 
2924.376 
2924.466 
2924.555 
2924.645 
2924.734 
2924.824 
2924.914 
2925.003 
2925.093 
2925.182 
2925.272 
2925.361 
2925.451 
2925.540 
2925.630 
2925.720 
2925.809 
2925.899 
2925.988 
2926.078 
2926.167 
2926.257 
2926.347 
2926.436 
2926.526 
2926.615 
2926.705 
2926.794 
2926.884 
2926.973 
2927.063 
2927.152 
2927.242 
2927.332 
2927.421 
2927.511 
2927.600 
2927.690 
2927.779 
2927.869 
2927.958 
2928.048 
2928.137 
2928.227 
2928.316 
2928.406 
2928.496 
2928.585 
2928.675 
2928.764 
2928.854 
2928.943 
2929.033 
2929.122 
2929.212 
2929.301 
2929.391 
2929.480 
2929.570 
2929.659 
2929.749 
2929.838 
2929.928 
2930.017 
2930.107 
2930.197 
2930.286 
2930.376 
2930.465 
2930.555 
2930.644 
2930.734 
2930.823 
2930.913 
2931.002 
2931.092 
2931.181 
2931.271 
2931.360 
2931.450 
2931.539 
2931.629 
2931.718 
2931.808 
2931.897 
2931.987 
2932.076 
2932.166 
2932.255 
2932.345 
2932.434 
2932.524 
2932.613 
2932.703 
2932.792 
2932.882 
2932.971 
2933.061 
2933.150 
2933.240 
2933.329 
2933.419 
2933.508 
2933.598 
2933.687 
2933.777 
2933.866 
2933.956 
2934.045 
2934.134 
2934.224 
2934.313 
2934.403 
2934.492 
2934.582 
2934.671 
2934.761 
2934.850 
2934.940 
2935.029 
2935.119 
2935.208 
2935.298 
2935.387 
2935.477 
2935.566 
2935.656 
2935.745 
2935.834 
2935.924 
2936.013 
2936.103 
2936.192 
2936.282 
2936.371 
2936.461 
2936.550 
2936.640 
2936.729 
2936.819 
2936.908 
2936.997 
2937.087 
2937.176 
2937.266 
2937.355 
2937.445 
2937.534 
2937.624 
2937.713 
2937.803 
2937.892 
2937.981 
2938.071 
2938.160 
2938.250 
2938.339 
2938.429 
2938.518 
2938.608 
2938.697 
2938.786 
2938.876 
2938.965 
2939.055 
2939.144 
2939.234 
2939.323 
2939.412 
2939.502 
2939.591 
2939.681 
2939.770 
2939.860 
2939.949 
2940.038 
2940.128 
2940.217 
2940.307 
2940.396 
2940.486 
2940.575 
2940.664 
2940.754 
2940.843 
2940.933 
2941.022 
2941.112 
2941.201 
2941.290 
2941.380 
2941.469 
2941.559 
2941.648 
2941.737 
2941.827 
2941.916 
2942.006 
2942.095 
2942.184 
2942.274 
2942.363 
2942.453 
2942.542 
2942.631 
2942.721 
2942.810 
2942.900 
2942.989 
2943.078 
2943.168 
2943.257 
2943.347 
2943.436 
2943.525 
2943.615 
2943.704 
2943.794 
2943.883 
2943.972 
2944.062 
2944.151 
2944.241 
2944.330 
2944.419 
2944.509 
2944.598 
2944.688 
2944.777 
2944.866 
2944.956 
2945.045 
2945.134 
2945.224 
2945.313 
2945.403 
2945.492 
2945.581 
2945.671 
2945.760 
2945.849 
2945.939 
2946.028 
2946.118 
2946.207 
2946.296 
2946.386 
2946.475 
2946.564 
2946.654 
2946.743 
2946.833 
2946.922 
2947.011 
2947.101 
2947.190 
2947.279 
2947.369 
2947.458 
2947.547 
2947.637 
2947.726 
2947.815 
2947.905 
2947.994 
2948.084 
2948.173 
2948.262 
2948.352 
2948.441 
2948.530 
2948.620 
2948.709 
2948.798 
2948.888 
2948.977 
2949.066 
2949.156 
2949.245 
2949.334 
2949.424 
2949.513 
2949.602 
2949.692 
2949.781 
2949.870 
2949.960 
2950.049 
2950.138 
2950.228 
2950.317 
2950.406 
2950.496 
2950.585 
2950.674 
2950.764 
2950.853 
2950.942 
2951.032 
2951.121 
2951.210 
2951.300 
2951.389 
2951.478 
2951.568 
2951.657 
2951.746 
2951.836 
2951.925 
2952.014 
2952.104 
2952.193 
2952.282 
2952.372 
2952.461 
2952.550 
2952.639 
2952.729 
2952.818 
2952.907 
2952.997 
2953.086 
2953.175 
2953.265 
2953.354 
2953.443 
2953.533 
2953.622 
2953.711 
2953.800 
2953.890 
2953.979 
2954.068 
2954.158 
2954.247 
2954.336 
2954.425 
2954.515 
2954.604 
2954.693 
2954.783 
2954.872 
2954.961 
2955.051 
2955.140 
2955.229 
2955.318 
2955.408 
2955.497 
2955.586 
2955.676 
2955.765 
2955.854 
2955.943 
2956.033 
2956.122 
2956.211 
2956.300 
2956.390 
2956.479 
2956.568 
2956.658 
2956.747 
2956.836 
2956.925 
2957.015 
2957.104 
2957.193 
2957.282 
2957.372 
2957.461 
2957.550 
2957.640 
2957.729 
2957.818 
2957.907 
2957.997 
2958.086 
2958.175 
2958.264 
2958.354 
2958.443 
2958.532 
2958.621 
2958.711 
2958.800 
2958.889 
2958.978 
2959.068 
2959.157 
2959.246 
2959.335 
2959.425 
2959.514 
2959.603 
2959.692 
2959.782 
2959.871 
2959.960 
2960.049 
2960.139 
2960.228 
2960.317 
2960.406 
2960.496 
2960.585 
2960.674 
2960.763 
2960.853 
2960.942 
2961.031 
2961.120 
2961.209 
2961.299 
2961.388 
2961.477 
2961.566 
2961.656 
2961.745 
2961.834 
2961.923 
2962.013 
2962.102 
2962.191 
2962.280 
2962.369 
2962.459 
2962.548 
2962.637 
2962.726 
2962.816 
2962.905 
2962.994 
2963.083 
2963.172 
2963.262 
2963.351 
2963.440 
2963.529 
2963.618 
2963.708 
2963.797 
2963.886 
2963.975 
2964.064 
2964.154 
2964.243 
2964.332 
2964.421 
2964.510 
2964.600 
2964.689 
2964.778 
2964.867 
2964.956 
2965.046 
2965.135 
2965.224 
2965.313 
2965.402 
2965.492 
2965.581 
2965.670 
2965.759 
2965.848 
2965.938 
2966.027 
2966.116 
2966.205 
2966.294 
2966.384 
2966.473 
2966.562 
2966.651 
2966.740 
2966.829 
2966.919 
2967.008 
2967.097 
2967.186 
2967.275 
2967.365 
2967.454 
2967.543 
2967.632 
2967.721 
2967.810 
2967.900 
2967.989 
2968.078 
2968.167 
2968.256 
2968.345 
2968.435 
2968.524 
2968.613 
2968.702 
2968.791 
2968.880 
2968.970 
2969.059 
2969.148 
2969.237 
2969.326 
2969.415 
2969.504 
2969.594 
2969.683 
2969.772 
2969.861 
2969.950 
2970.039 
2970.129 
2970.218 
2970.307 
2970.396 
2970.485 
2970.574 
2970.663 
2970.753 
2970.842 
2970.931 
2971.020 
2971.109 
2971.198 
2971.287 
2971.377 
2971.466 
2971.555 
2971.644 
2971.733 
2971.822 
2971.911 
2972.000 
2972.090 
2972.179 
2972.268 
2972.357 
2972.446 
2972.535 
2972.624 
2972.714 
2972.803 
2972.892 
2972.981 
2973.070 
2973.159 
2973.248 
2973.337 
2973.426 
2973.516 
2973.605 
2973.694 
2973.783 
2973.872 
2973.961 
2974.050 
2974.139 
2974.229 
2974.318 
2974.407 
2974.496 
2974.585 
2974.674 
2974.763 
2974.852 
2974.941 
2975.030 
2975.120 
2975.209 
2975.298 
2975.387 
2975.476 
2975.565 
2975.654 
2975.743 
2975.832 
2975.921 
2976.011 
2976.100 
2976.189 
2976.278 
2976.367 
2976.456 
2976.545 
2976.634 
2976.723 
2976.812 
2976.901 
2976.991 
2977.080 
2977.169 
2977.258 
2977.347 
2977.436 
2977.525 
2977.614 
2977.703 
2977.792 
2977.881 
2977.970 
2978.060 
2978.149 
2978.238 
2978.327 
2978.416 
2978.505 
2978.594 
2978.683 
2978.772 
2978.861 
2978.950 
2979.039 
2979.128 
2979.217 
2979.307 
2979.396 
2979.485 
2979.574 
2979.663 
2979.752 
2979.841 
2979.930 
2980.019 
2980.108 
2980.197 
2980.286 
2980.375 
2980.464 
2980.553 
2980.642 
2980.731 
2980.821 
2980.910 
2980.999 
2981.088 
2981.177 
2981.266 
2981.355 
2981.444 
2981.533 
2981.622 
2981.711 
2981.800 
2981.889 
2981.978 
2982.067 
2982.156 
2982.245 
2982.334 
2982.423 
2982.512 
2982.601 
2982.690 
2982.779 
2982.868 
2982.957 
2983.047 
2983.136 
2983.225 
2983.314 
2983.403 
2983.492 
2983.581 
2983.670 
2983.759 
2983.848 
2983.937 
2984.026 
2984.115 
2984.204 
2984.293 
2984.382 
2984.471 
2984.560 
2984.649 
2984.738 
2984.827 
2984.916 
2985.005 
2985.094 
2985.183 
2985.272 
2985.361 
2985.450 
2985.539 
2985.628 
2985.717 
2985.806 
2985.895 
2985.984 
2986.073 
2986.162 
2986.251 
2986.340 
2986.429 
2986.518 
2986.607 
2986.696 
2986.785 
2986.874 
2986.963 
2987.052 
2987.141 
2987.230 
2987.319 
2987.408 
2987.497 
2987.586 
2987.675 
2987.764 
2987.853 
2987.942 
2988.031 
2988.120 
2988.209 
2988.298 
2988.387 
2988.476 
2988.565 
2988.654 
2988.743 
2988.832 
2988.921 
2989.010 
2989.099 
2989.188 
2989.277 
2989.366 
2989.455 
2989.544 
2989.632 
2989.721 
2989.810 
2989.899 
2989.988 
2990.077 
2990.166 
2990.255 
2990.344 
2990.433 
2990.522 
2990.611 
2990.700 
2990.789 
2990.878 
2990.967 
2991.056 
2991.145 
2991.234 
2991.323 
2991.412 
2991.501 
2991.590 
2991.679 
2991.767 
2991.856 
2991.945 
2992.034 
2992.123 
2992.212 
2992.301 
2992.390 
2992.479 
2992.568 
2992.657 
2992.746 
2992.835 
2992.924 
2993.013 
2993.102 
2993.191 
2993.280 
2993.368 
2993.457 
2993.546 
2993.635 
2993.724 
2993.813 
2993.902 
2993.991 
2994.080 
2994.169 
2994.258 
2994.347 
2994.436 
2994.525 
2994.613 
2994.702 
2994.791 
2994.880 
2994.969 
2995.058 
2995.147 
2995.236 
2995.325 
2995.414 
2995.503 
2995.592 
2995.680 
2995.769 
2995.858 
2995.947 
2996.036 
2996.125 
2996.214 
2996.303 
2996.392 
2996.481 
2996.570 
2996.658 
2996.747 
2996.836 
2996.925 
2997.014 
2997.103 
2997.192 
2997.281 
2997.370 
2997.459 
2997.547 
2997.636 
2997.725 
2997.814 
2997.903 
2997.992 
2998.081 
2998.170 
2998.259 
2998.347 
2998.436 
2998.525 
2998.614 
2998.703 
2998.792 
2998.881 
2998.970 
2999.059 
2999.147 
2999.236 
2999.325 
2999.414 
2999.503 
2999.592 
2999.681 
2999.770 
2999.858 
2999.947 
3000.036 
3000.125 
3000.214 
3000.303 
3000.392 
3000.481 
3000.569 
3000.658 
3000.747 
3000.836 
3000.925 
3001.014 
3001.103 
3001.191 
3001.280 
3001.369 
3001.458 
3001.547 
3001.636 
3001.725 
3001.813 
3001.902 
3001.991 
3002.080 
3002.169 
3002.258 
3002.347 
3002.435 
3002.524 
3002.613 
3002.702 
3002.791 
3002.880 
3002.969 
3003.057 
3003.146 
3003.235 
3003.324 
3003.413 
3003.502 
3003.590 
3003.679 
3003.768 
3003.857 
3003.946 
3004.035 
3004.123 
3004.212 
3004.301 
3004.390 
3004.479 
3004.568 
3004.656 
3004.745 
3004.834 
3004.923 
3005.012 
3005.101 
3005.189 
3005.278 
3005.367 
3005.456 
3005.545 
3005.634 
3005.722 
3005.811 
3005.900 
3005.989 
3006.078 
3006.166 
3006.255 
3006.344 
3006.433 
3006.522 
3006.611 
3006.699 
3006.788 
3006.877 
3006.966 
3007.055 
3007.143 
3007.232 
3007.321 
3007.410 
3007.499 
3007.587 
3007.676 
3007.765 
3007.854 
3007.943 
3008.031 
3008.120 
3008.209 
3008.298 
3008.387 
3008.475 
3008.564 
3008.653 
3008.742 
3008.831 
3008.919 
3009.008 
3009.097 
3009.186 
3009.275 
3009.363 
3009.452 
3009.541 
3009.630 
3009.718 
3009.807 
3009.896 
3009.985 
3010.074 
3010.162 
3010.251 
3010.340 
3010.429 
3010.517 
3010.606 
3010.695 
3010.784 
3010.873 
3010.961 
3011.050 
3011.139 
3011.228 
3011.316 
3011.405 
3011.494 
3011.583 
3011.671 
3011.760 
3011.849 
3011.938 
3012.027 
3012.115 
3012.204 
3012.293 
3012.382 
3012.470 
3012.559 
3012.648 
3012.737 
3012.825 
3012.914 
3013.003 
3013.092 
3013.180 
3013.269 
3013.358 
3013.447 
3013.535 
3013.624 
3013.713 
3013.802 
3013.890 
3013.979 
3014.068 
3014.157 
3014.245 
3014.334 
3014.423 
3014.512 
3014.600 
3014.689 
3014.778 
3014.866 
3014.955 
3015.044 
3015.133 
3015.221 
3015.310 
3015.399 
3015.488 
3015.576 
3015.665 
3015.754 
3015.842 
3015.931 
3016.020 
3016.109 
3016.197 
3016.286 
3016.375 
3016.464 
3016.552 
3016.641 
3016.730 
3016.818 
3016.907 
3016.996 
3017.085 
3017.173 
3017.262 
3017.351 
3017.439 
3017.528 
3017.617 
3017.706 
3017.794 
3017.883 
3017.972 
3018.060 
3018.149 
3018.238 
3018.326 
3018.415 
3018.504 
3018.593 
3018.681 
3018.770 
3018.859 
3018.947 
3019.036 
3019.125 
3019.213 
3019.302 
3019.391 
3019.480 
3019.568 
3019.657 
3019.746 
3019.834 
3019.923 
3020.012 
3020.100 
3020.189 
3020.278 
3020.366 
3020.455 
3020.544 
3020.632 
3020.721 
3020.810 
3020.899 
3020.987 
3021.076 
3021.165 
3021.253 
3021.342 
3021.431 
3021.519 
3021.608 
3021.697 
3021.785 
3021.874 
3021.963 
3022.051 
3022.140 
3022.229 
3022.317 
3022.406 
3022.495 
3022.583 
3022.672 
3022.761 
3022.849 
3022.938 
3023.027 
3023.115 
3023.204 
3023.293 
3023.381 
3023.470 
3023.559 
3023.647 
3023.736 
3023.824 
3023.913 
3024.002 
3024.090 
3024.179 
3024.268 
3024.356 
3024.445 
3024.534 
3024.622 
3024.711 
3024.800 
3024.888 
3024.977 
3025.066 
3025.154 
3025.243 
3025.331 
3025.420 
3025.509 
3025.597 
3025.686 
3025.775 
3025.863 
3025.952 
3026.041 
3026.129 
3026.218 
3026.306 
3026.395 
3026.484 
3026.572 
3026.661 
3026.750 
3026.838 
3026.927 
3027.015 
3027.104 
3027.193 
3027.281 
3027.370 
3027.459 
3027.547 
3027.636 
3027.724 
3027.813 
3027.902 
3027.990 
3028.079 
3028.167 
3028.256 
3028.345 
3028.433 
3028.522 
3028.610 
3028.699 
3028.788 
3028.876 
3028.965 
3029.054 
3029.142 
3029.231 
3029.319 
3029.408 
3029.497 
3029.585 
3029.674 
3029.762 
3029.851 
3029.940 
3030.028 
3030.117 
3030.205 
3030.294 
3030.382 
3030.471 
3030.560 
3030.648 
3030.737 
3030.825 
3030.914 
3031.003 
3031.091 
3031.180 
3031.268 
3031.357 
3031.446 
3031.534 
3031.623 
3031.711 
3031.800 
3031.888 
3031.977 
3032.066 
3032.154 
3032.243 
3032.331 
3032.420 
3032.508 
3032.597 
3032.686 
3032.774 
3032.863 
3032.951 
3033.040 
3033.128 
3033.217 
3033.306 
3033.394 
3033.483 
3033.571 
3033.660 
3033.748 
3033.837 
3033.925 
3034.014 
3034.103 
3034.191 
3034.280 
3034.368 
3034.457 
3034.545 
3034.634 
3034.722 
3034.811 
3034.900 
3034.988 
3035.077 
3035.165 
3035.254 
3035.342 
3035.431 
3035.519 
3035.608 
3035.696 
3035.785 
3035.874 
3035.962 
3036.051 
3036.139 
3036.228 
3036.316 
3036.405 
3036.493 
3036.582 
3036.670 
3036.759 
3036.847 
3036.936 
3037.024 
3037.113 
3037.202 
3037.290 
3037.379 
3037.467 
3037.556 
3037.644 
3037.733 
3037.821 
3037.910 
3037.998 
3038.087 
3038.175 
3038.264 
3038.352 
3038.441 
3038.529 
3038.618 
3038.706 
3038.795 
3038.883 
3038.972 
3039.060 
3039.149 
3039.237 
3039.326 
3039.414 
3039.503 
3039.591 
3039.680 
3039.768 
3039.857 
3039.946 
3040.034 
3040.123 
3040.211 
3040.300 
3040.388 
3040.477 
3040.565 
3040.653 
3040.742 
3040.830 
3040.919 
3041.007 
3041.096 
3041.184 
3041.273 
3041.361 
3041.450 
3041.538 
3041.627 
3041.715 
3041.804 
3041.892 
3041.981 
3042.069 
3042.158 
3042.246 
3042.335 
3042.423 
3042.512 
3042.600 
3042.689 
3042.777 
3042.866 
3042.954 
3043.043 
3043.131 
3043.220 
3043.308 
3043.396 
3043.485 
3043.573 
3043.662 
3043.750 
3043.839 
3043.927 
3044.016 
3044.104 
3044.193 
3044.281 
3044.370 
3044.458 
3044.546 
3044.635 
3044.723 
3044.812 
3044.900 
3044.989 
3045.077 
3045.166 
3045.254 
3045.343 
3045.431 
3045.519 
3045.608 
3045.696 
3045.785 
3045.873 
3045.962 
3046.050 
3046.139 
3046.227 
3046.316 
3046.404 
3046.492 
3046.581 
3046.669 
3046.758 
3046.846 
3046.935 
3047.023 
3047.111 
3047.200 
3047.288 
3047.377 
3047.465 
3047.554 
3047.642 
3047.730 
3047.819 
3047.907 
3047.996 
3048.084 
3048.173 
3048.261 
3048.349 
3048.438 
3048.526 
3048.615 
3048.703 
3048.792 
3048.880 
3048.968 
3049.057 
3049.145 
3049.234 
3049.322 
3049.411 
3049.499 
3049.587 
3049.676 
3049.764 
3049.853 
3049.941 
3050.029 
3050.118 
3050.206 
3050.295 
3050.383 
3050.471 
3050.560 
3050.648 
3050.737 
3050.825 
3050.913 
3051.002 
3051.090 
3051.179 
3051.267 
3051.355 
3051.444 
3051.532 
3051.621 
3051.709 
3051.797 
3051.886 
3051.974 
3052.063 
3052.151 
3052.239 
3052.328 
3052.416 
3052.504 
3052.593 
3052.681 
3052.770 
3052.858 
3052.946 
3053.035 
3053.123 
3053.212 
3053.300 
3053.388 
3053.477 
3053.565 
3053.653 
3053.742 
3053.830 
3053.919 
3054.007 
3054.095 
3054.184 
3054.272 
3054.360 
3054.449 
3054.537 
3054.625 
3054.714 
3054.802 
3054.891 
3054.979 
3055.067 
3055.156 
3055.244 
3055.332 
3055.421 
3055.509 
3055.597 
3055.686 
3055.774 
3055.863 
3055.951 
3056.039 
3056.128 
3056.216 
3056.304 
3056.393 
3056.481 
3056.569 
3056.658 
3056.746 
3056.834 
3056.923 
3057.011 
3057.099 
3057.188 
3057.276 
3057.364 
3057.453 
3057.541 
3057.629 
3057.718 
3057.806 
3057.894 
3057.983 
3058.071 
3058.159 
3058.248 
3058.336 
3058.424 
3058.513 
3058.601 
3058.689 
3058.778 
3058.866 
3058.954 
3059.043 
3059.131 
3059.219 
3059.308 
3059.396 
3059.484 
3059.573 
3059.661 
3059.749 
3059.838 
3059.926 
3060.014 
3060.103 
3060.191 
3060.279 
3060.368 
3060.456 
3060.544 
3060.632 
3060.721 
3060.809 
3060.897 
3060.986 
3061.074 
3061.162 
3061.251 
3061.339 
3061.427 
3061.515 
3061.604 
3061.692 
3061.780 
3061.869 
3061.957 
3062.045 
3062.134 
3062.222 
3062.310 
3062.398 
3062.487 
3062.575 
3062.663 
3062.752 
3062.840 
3062.928 
3063.016 
3063.105 
3063.193 
3063.281 
3063.370 
3063.458 
3063.546 
3063.634 
3063.723 
3063.811 
3063.899 
3063.988 
3064.076 
3064.164 
3064.252 
3064.341 
3064.429 
3064.517 
3064.606 
3064.694 
3064.782 
3064.870 
3064.959 
3065.047 
3065.135 
3065.223 
3065.312 
3065.400 
3065.488 
3065.576 
3065.665 
3065.753 
3065.841 
3065.930 
3066.018 
3066.106 
3066.194 
3066.283 
3066.371 
3066.459 
3066.547 
3066.636 
3066.724 
3066.812 
3066.900 
3066.989 
3067.077 
3067.165 
3067.253 
3067.342 
3067.430 
3067.518 
3067.606 
3067.695 
3067.783 
3067.871 
3067.959 
3068.048 
3068.136 
3068.224 
3068.312 
3068.400 
3068.489 
3068.577 
3068.665 
3068.753 
3068.842 
3068.930 
3069.018 
3069.106 
3069.195 
3069.283 
3069.371 
3069.459 
3069.547 
3069.636 
3069.724 
3069.812 
3069.900 
3069.989 
3070.077 
3070.165 
3070.253 
3070.341 
3070.430 
3070.518 
3070.606 
3070.694 
3070.783 
3070.871 
3070.959 
3071.047 
3071.135 
3071.224 
3071.312 
3071.400 
3071.488 
3071.576 
3071.665 
3071.753 
3071.841 
3071.929 
3072.017 
3072.106 
3072.194 
3072.282 
3072.370 
3072.458 
3072.547 
3072.635 
3072.723 
3072.811 
3072.899 
3072.988 
3073.076 
3073.164 
3073.252 
3073.340 
3073.429 
3073.517 
3073.605 
3073.693 
3073.781 
3073.870 
3073.958 
3074.046 
3074.134 
3074.222 
3074.310 
3074.399 
3074.487 
3074.575 
3074.663 
3074.751 
3074.840 
3074.928 
3075.016 
3075.104 
3075.192 
3075.280 
3075.369 
3075.457 
3075.545 
3075.633 
3075.721 
3075.809 
3075.898 
3075.986 
3076.074 
3076.162 
3076.250 
3076.338 
3076.427 
3076.515 
3076.603 
3076.691 
3076.779 
3076.867 
3076.956 
3077.044 
3077.132 
3077.220 
3077.308 
3077.396 
3077.484 
3077.573 
3077.661 
3077.749 
3077.837 
3077.925 
3078.013 
3078.102 
3078.190 
3078.278 
3078.366 
3078.454 
3078.542 
3078.630 
3078.719 
3078.807 
3078.895 
3078.983 
3079.071 
3079.159 
3079.247 
3079.336 
3079.424 
3079.512 
3079.600 
3079.688 
3079.776 
3079.864 
3079.952 
3080.041 
3080.129 
3080.217 
3080.305 
3080.393 
3080.481 
3080.569 
3080.657 
3080.746 
3080.834 
3080.922 
3081.010 
3081.098 
3081.186 
3081.274 
3081.362 
3081.451 
3081.539 
3081.627 
3081.715 
3081.803 
3081.891 
3081.979 
3082.067 
3082.155 
3082.244 
3082.332 
3082.420 
3082.508 
3082.596 
3082.684 
3082.772 
3082.860 
3082.948 
3083.036 
3083.125 
3083.213 
3083.301 
3083.389 
3083.477 
3083.565 
3083.653 
3083.741 
3083.829 
3083.917 
3084.005 
3084.094 
3084.182 
3084.270 
3084.358 
3084.446 
3084.534 
3084.622 
3084.710 
3084.798 
3084.886 
3084.974 
3085.063 
3085.151 
3085.239 
3085.327 
3085.415 
3085.503 
3085.591 
3085.679 
3085.767 
3085.855 
3085.943 
3086.031 
3086.119 
3086.208 
3086.296 
3086.384 
3086.472 
3086.560 
3086.648 
3086.736 
3086.824 
3086.912 
3087.000 
3087.088 
3087.176 
3087.264 
3087.352 
3087.440 
3087.528 
3087.617 
3087.705 
3087.793 
3087.881 
3087.969 
3088.057 
3088.145 
3088.233 
3088.321 
3088.409 
3088.497 
3088.585 
3088.673 
3088.761 
3088.849 
3088.937 
3089.025 
3089.113 
3089.201 
3089.289 
3089.378 
3089.466 
3089.554 
3089.642 
3089.730 
3089.818 
3089.906 
3089.994 
3090.082 
3090.170 
3090.258 
3090.346 
3090.434 
3090.522 
3090.610 
3090.698 
3090.786 
3090.874 
3090.962 
3091.050 
3091.138 
3091.226 
3091.314 
3091.402 
3091.490 
3091.578 
3091.666 
3091.754 
3091.842 
3091.930 
3092.018 
3092.106 
3092.194 
3092.282 
3092.370 
3092.458 
3092.546 
3092.634 
3092.722 
3092.810 
3092.898 
3092.986 
3093.075 
3093.163 
3093.251 
3093.339 
3093.427 
3093.515 
3093.603 
3093.691 
3093.779 
3093.867 
3093.955 
3094.043 
3094.131 
3094.219 
3094.307 
3094.395 
3094.483 
3094.570 
3094.658 
3094.746 
3094.834 
3094.922 
3095.010 
3095.098 
3095.186 
3095.274 
3095.362 
3095.450 
3095.538 
3095.626 
3095.714 
3095.802 
3095.890 
3095.978 
3096.066 
3096.154 
3096.242 
3096.330 
3096.418 
3096.506 
3096.594 
3096.682 
3096.770 
3096.858 
3096.946 
3097.034 
3097.122 
3097.210 
3097.298 
3097.386 
3097.474 
3097.562 
3097.650 
3097.738 
3097.826 
3097.914 
3098.002 
3098.090 
3098.177 
3098.265 
3098.353 
3098.441 
3098.529 
3098.617 
3098.705 
3098.793 
3098.881 
3098.969 
3099.057 
3099.145 
3099.233 
3099.321 
3099.409 
3099.497 
3099.585 
3099.673 
3099.761 
3099.849 
3099.936 
3100.024 
3100.112 
3100.200 
3100.288 
3100.376 
3100.464 
3100.552 
3100.640 
3100.728 
3100.816 
3100.904 
3100.992 
3101.080 
3101.168 
3101.256 
3101.343 
3101.431 
3101.519 
3101.607 
3101.695 
3101.783 
3101.871 
3101.959 
3102.047 
3102.135 
3102.223 
3102.311 
3102.399 
3102.486 
3102.574 
3102.662 
3102.750 
3102.838 
3102.926 
3103.014 
3103.102 
3103.190 
3103.278 
3103.366 
3103.454 
3103.541 
3103.629 
3103.717 
3103.805 
3103.893 
3103.981 
3104.069 
3104.157 
3104.245 
3104.333 
3104.420 
3104.508 
3104.596 
3104.684 
3104.772 
3104.860 
3104.948 
3105.036 
3105.124 
3105.212 
3105.299 
3105.387 
3105.475 
3105.563 
3105.651 
3105.739 
3105.827 
3105.915 
3106.003 
3106.090 
3106.178 
3106.266 
3106.354 
3106.442 
3106.530 
3106.618 
3106.706 
3106.793 
3106.881 
3106.969 
3107.057 
3107.145 
3107.233 
3107.321 
3107.409 
3107.496 
3107.584 
3107.672 
3107.760 
3107.848 
3107.936 
3108.024 
3108.112 
3108.199 
3108.287 
3108.375 
3108.463 
3108.551 
3108.639 
3108.727 
3108.814 
3108.902 
3108.990 
3109.078 
3109.166 
3109.254 
3109.342 
3109.429 
3109.517 
3109.605 
3109.693 
3109.781 
3109.869 
3109.957 
3110.044 
3110.132 
3110.220 
3110.308 
3110.396 
3110.484 
3110.571 
3110.659 
3110.747 
3110.835 
3110.923 
3111.011 
3111.098 
3111.186 
3111.274 
3111.362 
3111.450 
3111.538 
3111.626 
3111.713 
3111.801 
3111.889 
3111.977 
3112.065 
3112.152 
3112.240 
3112.328 
3112.416 
3112.504 
3112.592 
3112.679 
3112.767 
3112.855 
3112.943 
3113.031 
3113.119 
3113.206 
3113.294 
3113.382 
3113.470 
3113.558 
3113.645 
3113.733 
3113.821 
3113.909 
3113.997 
3114.084 
3114.172 
3114.260 
3114.348 
3114.436 
3114.524 
3114.611 
3114.699 
3114.787 
3114.875 
3114.963 
3115.050 
3115.138 
3115.226 
3115.314 
3115.402 
3115.489 
3115.577 
3115.665 
3115.753 
3115.841 
3115.928 
3116.016 
3116.104 
3116.192 
3116.279 
3116.367 
3116.455 
3116.543 
3116.631 
3116.718 
3116.806 
3116.894 
3116.982 
3117.070 
3117.157 
3117.245 
3117.333 
3117.421 
3117.508 
3117.596 
3117.684 
3117.772 
3117.860 
3117.947 
3118.035 
3118.123 
3118.211 
3118.298 
3118.386 
3118.474 
3118.562 
3118.649 
3118.737 
3118.825 
3118.913 
3119.001 
3119.088 
3119.176 
3119.264 
3119.352 
3119.439 
3119.527 
3119.615 
3119.703 
3119.790 
3119.878 
3119.966 
3120.054 
3120.141 
3120.229 
3120.317 
3120.405 
3120.492 
3120.580 
3120.668 
3120.756 
3120.843 
3120.931 
3121.019 
3121.107 
3121.194 
3121.282 
3121.370 
3121.458 
3121.545 
3121.633 
3121.721 
3121.809 
3121.896 
3121.984 
3122.072 
3122.159 
3122.247 
3122.335 
3122.423 
3122.510 
3122.598 
3122.686 
3122.774 
3122.861 
3122.949 
3123.037 
3123.124 
3123.212 
3123.300 
3123.388 
3123.475 
3123.563 
3123.651 
3123.739 
3123.826 
3123.914 
3124.002 
3124.089 
3124.177 
3124.265 
3124.353 
3124.440 
3124.528 
3124.616 
3124.703 
3124.791 
3124.879 
3124.967 
3125.054 
3125.142 
3125.230 
3125.317 
3125.405 
3125.493 
3125.580 
3125.668 
3125.756 
3125.844 
3125.931 
3126.019 
3126.107 
3126.194 
3126.282 
3126.370 
3126.457 
3126.545 
3126.633 
3126.721 
3126.808 
3126.896 
3126.984 
3127.071 
3127.159 
3127.247 
3127.334 
3127.422 
3127.510 
3127.597 
3127.685 
3127.773 
3127.860 
3127.948 
3128.036 
3128.123 
3128.211 
3128.299 
3128.386 
3128.474 
3128.562 
3128.650 
3128.737 
3128.825 
3128.913 
3129.000 
3129.088 
3129.176 
3129.263 
3129.351 
3129.439 
3129.526 
3129.614 
3129.702 
3129.789 
3129.877 
3129.965 
3130.052 
3130.140 
3130.227 
3130.315 
3130.403 
3130.490 
3130.578 
3130.666 
3130.753 
3130.841 
3130.929 
3131.016 
3131.104 
3131.192 
3131.279 
3131.367 
3131.455 
3131.542 
3131.630 
3131.718 
3131.805 
3131.893 
3131.980 
3132.068 
3132.156 
3132.243 
3132.331 
3132.419 
3132.506 
3132.594 
3132.682 
3132.769 
3132.857 
3132.944 
3133.032 
3133.120 
3133.207 
3133.295 
3133.383 
3133.470 
3133.558 
3133.646 
3133.733 
3133.821 
3133.908 
3133.996 
3134.084 
3134.171 
3134.259 
3134.347 
3134.434 
3134.522 
3134.609 
3134.697 
3134.785 
3134.872 
3134.960 
3135.047 
3135.135 
3135.223 
3135.310 
3135.398 
3135.485 
3135.573 
3135.661 
3135.748 
3135.836 
3135.924 
3136.011 
3136.099 
3136.186 
3136.274 
3136.362 
3136.449 
3136.537 
3136.624 
3136.712 
3136.800 
3136.887 
3136.975 
3137.062 
3137.150 
3137.237 
3137.325 
3137.413 
3137.500 
3137.588 
3137.675 
3137.763 
3137.851 
3137.938 
3138.026 
3138.113 
3138.201 
3138.289 
3138.376 
3138.464 
3138.551 
3138.639 
3138.726 
3138.814 
3138.902 
3138.989 
3139.077 
3139.164 
3139.252 
3139.339 
3139.427 
3139.515 
3139.602 
3139.690 
3139.777 
3139.865 
3139.952 
3140.040 
3140.128 
3140.215 
3140.303 
3140.390 
3140.478 
3140.565 
3140.653 
3140.741 
3140.828 
3140.916 
3141.003 
3141.091 
3141.178 
3141.266 
3141.353 
3141.441 
3141.529 
3141.616 
3141.704 
3141.791 
3141.879 
3141.966 
3142.054 
3142.141 
3142.229 
3142.316 
3142.404 
3142.492 
3142.579 
3142.667 
3142.754 
3142.842 
3142.929 
3143.017 
3143.104 
3143.192 
3143.279 
3143.367 
3143.454 
3143.542 
3143.630 
3143.717 
3143.805 
3143.892 
3143.980 
3144.067 
3144.155 
3144.242 
3144.330 
3144.417 
3144.505 
3144.592 
3144.680 
3144.767 
3144.855 
3144.942 
3145.030 
3145.117 
3145.205 
3145.292 
3145.380 
3145.468 
3145.555 
3145.643 
3145.730 
3145.818 
3145.905 
3145.993 
3146.080 
3146.168 
3146.255 
3146.343 
3146.430 
3146.518 
3146.605 
3146.693 
3146.780 
3146.868 
3146.955 
3147.043 
3147.130 
3147.218 
3147.305 
3147.393 
3147.480 
3147.568 
3147.655 
3147.743 
3147.830 
3147.918 
3148.005 
3148.093 
3148.180 
3148.268 
3148.355 
3148.443 
3148.530 
3148.618 
3148.705 
3148.792 
3148.880 
3148.967 
3149.055 
3149.142 
3149.230 
3149.317 
3149.405 
3149.492 
3149.580 
3149.667 
3149.755 
3149.842 
3149.930 
3150.017 
3150.105 
3150.192 
3150.280 
3150.367 
3150.455 
3150.542 
3150.629 
3150.717 
3150.804 
3150.892 
3150.979 
3151.067 
3151.154 
3151.242 
3151.329 
3151.417 
3151.504 
3151.592 
3151.679 
3151.766 
3151.854 
3151.941 
3152.029 
3152.116 
3152.204 
3152.291 
3152.379 
3152.466 
3152.553 
3152.641 
3152.728 
3152.816 
3152.903 
3152.991 
3153.078 
3153.166 
3153.253 
3153.340 
3153.428 
3153.515 
3153.603 
3153.690 
3153.778 
3153.865 
3153.953 
3154.040 
3154.127 
3154.215 
3154.302 
3154.390 
3154.477 
3154.565 
3154.652 
3154.739 
3154.827 
3154.914 
3155.002 
3155.089 
3155.177 
3155.264 
3155.351 
3155.439 
3155.526 
3155.614 
3155.701 
3155.789 
3155.876 
3155.963 
3156.051 
3156.138 
3156.226 
3156.313 
3156.400 
3156.488 
3156.575 
3156.663 
3156.750 
3156.837 
3156.925 
3157.012 
3157.100 
3157.187 
3157.274 
3157.362 
3157.449 
3157.537 
3157.624 
3157.711 
3157.799 
3157.886 
3157.974 
3158.061 
3158.148 
3158.236 
3158.323 
3158.411 
3158.498 
3158.585 
3158.673 
3158.760 
3158.848 
3158.935 
3159.022 
3159.110 
3159.197 
3159.285 
3159.372 
3159.459 
3159.547 
3159.634 
3159.721 
3159.809 
3159.896 
3159.984 
3160.071 
3160.158 
3160.246 
3160.333 
3160.420 
3160.508 
3160.595 
3160.683 
3160.770 
3160.857 
3160.945 
3161.032 
3161.119 
3161.207 
3161.294 
3161.382 
3161.469 
3161.556 
3161.644 
3161.731 
3161.818 
3161.906 
3161.993 
3162.080 
3162.168 
3162.255 
3162.342 
3162.430 
3162.517 
3162.605 
3162.692 
3162.779 
3162.867 
3162.954 
3163.041 
3163.129 
3163.216 
3163.303 
3163.391 
3163.478 
3163.565 
3163.653 
3163.740 
3163.827 
3163.915 
3164.002 
3164.089 
3164.177 
3164.264 
3164.351 
3164.439 
3164.526 
3164.613 
3164.701 
3164.788 
3164.875 
3164.963 
3165.050 
3165.137 
3165.225 
3165.312 
3165.399 
3165.487 
3165.574 
3165.661 
3165.749 
3165.836 
3165.923 
3166.011 
3166.098 
3166.185 
3166.273 
3166.360 
3166.447 
3166.535 
3166.622 
3166.709 
3166.797 
3166.884 
3166.971 
3167.059 
3167.146 
3167.233 
3167.320 
3167.408 
3167.495 
3167.582 
3167.670 
3167.757 
3167.844 
3167.932 
3168.019 
3168.106 
3168.193 
3168.281 
3168.368 
3168.455 
3168.543 
3168.630 
3168.717 
3168.805 
3168.892 
3168.979 
3169.066 
3169.154 
3169.241 
3169.328 
3169.416 
3169.503 
3169.590 
3169.677 
3169.765 
3169.852 
3169.939 
3170.027 
3170.114 
3170.201 
3170.288 
3170.376 
3170.463 
3170.550 
3170.638 
3170.725 
3170.812 
3170.899 
3170.987 
3171.074 
3171.161 
3171.248 
3171.336 
3171.423 
3171.510 
3171.598 
3171.685 
3171.772 
3171.859 
3171.947 
3172.034 
3172.121 
3172.208 
3172.296 
3172.383 
3172.470 
3172.557 
3172.645 
3172.732 
3172.819 
3172.907 
3172.994 
3173.081 
3173.168 
3173.256 
3173.343 
3173.430 
3173.517 
3173.605 
3173.692 
3173.779 
3173.866 
3173.954 
3174.041 
3174.128 
3174.215 
3174.303 
3174.390 
3174.477 
3174.564 
3174.651 
3174.739 
3174.826 
3174.913 
3175.000 
3175.088 
3175.175 
3175.262 
3175.349 
3175.437 
3175.524 
3175.611 
3175.698 
3175.786 
3175.873 
3175.960 
3176.047 
3176.134 
3176.222 
3176.309 
3176.396 
3176.483 
3176.571 
3176.658 
3176.745 
3176.832 
3176.919 
3177.007 
3177.094 
3177.181 
3177.268 
3177.356 
3177.443 
3177.530 
3177.617 
3177.704 
3177.792 
3177.879 
3177.966 
3178.053 
3178.140 
3178.228 
3178.315 
3178.402 
3178.489 
3178.576 
3178.664 
3178.751 
3178.838 
3178.925 
3179.012 
3179.100 
3179.187 
3179.274 
3179.361 
3179.448 
3179.536 
3179.623 
3179.710 
3179.797 
3179.884 
3179.972 
3180.059 
3180.146 
3180.233 
3180.320 
3180.407 
3180.495 
3180.582 
3180.669 
3180.756 
3180.843 
3180.931 
3181.018 
3181.105 
3181.192 
3181.279 
3181.366 
3181.454 
3181.541 
3181.628 
3181.715 
3181.802 
3181.890 
3181.977 
3182.064 
3182.151 
3182.238 
3182.325 
3182.413 
3182.500 
3182.587 
3182.674 
3182.761 
3182.848 
3182.936 
3183.023 
3183.110 
3183.197 
3183.284 
3183.371 
3183.458 
3183.546 
3183.633 
3183.720 
3183.807 
3183.894 
3183.981 
3184.069 
3184.156 
3184.243 
3184.330 
3184.417 
3184.504 
3184.591 
3184.679 
3184.766 
3184.853 
3184.940 
3185.027 
3185.114 
3185.201 
3185.289 
3185.376 
3185.463 
3185.550 
3185.637 
3185.724 
3185.811 
3185.899 
3185.986 
3186.073 
3186.160 
3186.247 
3186.334 
3186.421 
3186.508 
3186.596 
3186.683 
3186.770 
3186.857 
3186.944 
3187.031 
3187.118 
3187.205 
3187.293 
3187.380 
3187.467 
3187.554 
3187.641 
3187.728 
3187.815 
3187.902 
3187.989 
3188.077 
3188.164 
3188.251 
3188.338 
3188.425 
3188.512 
3188.599 
3188.686 
3188.773 
3188.861 
3188.948 
3189.035 
3189.122 
3189.209 
3189.296 
3189.383 
3189.470 
3189.557 
3189.645 
3189.732 
3189.819 
3189.906 
3189.993 
3190.080 
3190.167 
3190.254 
3190.341 
3190.428 
3190.515 
3190.603 
3190.690 
3190.777 
3190.864 
3190.951 
3191.038 
3191.125 
3191.212 
3191.299 
3191.386 
3191.473 
3191.560 
3191.648 
3191.735 
3191.822 
3191.909 
3191.996 
3192.083 
3192.170 
3192.257 
3192.344 
3192.431 
3192.518 
3192.605 
3192.692 
3192.779 
3192.867 
3192.954 
3193.041 
3193.128 
3193.215 
3193.302 
3193.389 
3193.476 
3193.563 
3193.650 
3193.737 
3193.824 
3193.911 
3193.998 
3194.085 
3194.172 
3194.260 
3194.347 
3194.434 
3194.521 
3194.608 
3194.695 
3194.782 
3194.869 
3194.956 
3195.043 
3195.130 
3195.217 
3195.304 
3195.391 
3195.478 
3195.565 
3195.652 
3195.739 
3195.826 
3195.913 
3196.000 
3196.087 
3196.175 
3196.262 
3196.349 
3196.436 
3196.523 
3196.610 
3196.697 
3196.784 
3196.871 
3196.958 
3197.045 
3197.132 
3197.219 
3197.306 
3197.393 
3197.480 
3197.567 
3197.654 
3197.741 
3197.828 
3197.915 
3198.002 
3198.089 
3198.176 
3198.263 
3198.350 
3198.437 
3198.524 
3198.611 
3198.698 
3198.785 
3198.872 
3198.959 
3199.046 
3199.133 
3199.220 
3199.307 
3199.394 
3199.481 
3199.568 
3199.655 
3199.742 
3199.829 
3199.916 
