# Wavelength table for hrs,echa,22
2497.000 
2497.028 
2497.057 
2497.085 
2497.114 
2497.142 
2497.170 
2497.199 
2497.227 
2497.256 
2497.284 
2497.312 
2497.341 
2497.369 
2497.398 
2497.426 
2497.454 
2497.483 
2497.511 
2497.539 
2497.568 
2497.596 
2497.625 
2497.653 
2497.681 
2497.710 
2497.738 
2497.766 
2497.795 
2497.823 
2497.852 
2497.880 
2497.908 
2497.937 
2497.965 
2497.993 
2498.022 
2498.050 
2498.079 
2498.107 
2498.135 
2498.164 
2498.192 
2498.220 
2498.249 
2498.277 
2498.305 
2498.334 
2498.362 
2498.390 
2498.419 
2498.447 
2498.476 
2498.504 
2498.532 
2498.561 
2498.589 
2498.617 
2498.646 
2498.674 
2498.702 
2498.731 
2498.759 
2498.787 
2498.816 
2498.844 
2498.872 
2498.901 
2498.929 
2498.957 
2498.986 
2499.014 
2499.042 
2499.071 
2499.099 
2499.127 
2499.156 
2499.184 
2499.212 
2499.241 
2499.269 
2499.297 
2499.326 
2499.354 
2499.382 
2499.411 
2499.439 
2499.467 
2499.496 
2499.524 
2499.552 
2499.581 
2499.609 
2499.637 
2499.665 
2499.694 
2499.722 
2499.750 
2499.779 
2499.807 
2499.835 
2499.864 
2499.892 
2499.920 
2499.949 
2499.977 
2500.005 
2500.033 
2500.062 
2500.090 
2500.118 
2500.147 
2500.175 
2500.203 
2500.232 
2500.260 
2500.288 
2500.316 
2500.345 
2500.373 
2500.401 
2500.430 
2500.458 
2500.486 
2500.514 
2500.543 
2500.571 
2500.599 
2500.628 
2500.656 
2500.684 
2500.712 
2500.741 
2500.769 
2500.797 
2500.826 
2500.854 
2500.882 
2500.910 
2500.939 
2500.967 
2500.995 
2501.023 
2501.052 
2501.080 
2501.108 
2501.136 
2501.165 
2501.193 
2501.221 
2501.250 
2501.278 
2501.306 
2501.334 
2501.363 
2501.391 
2501.419 
2501.447 
2501.476 
2501.504 
2501.532 
2501.560 
2501.589 
2501.617 
2501.645 
2501.673 
2501.702 
2501.730 
2501.758 
2501.786 
2501.815 
2501.843 
2501.871 
2501.899 
2501.928 
2501.956 
2501.984 
2502.012 
2502.040 
2502.069 
2502.097 
2502.125 
2502.153 
2502.182 
2502.210 
2502.238 
2502.266 
2502.295 
2502.323 
2502.351 
2502.379 
2502.407 
2502.436 
2502.464 
2502.492 
2502.520 
2502.549 
2502.577 
2502.605 
2502.633 
2502.661 
2502.690 
2502.718 
2502.746 
2502.774 
2502.802 
2502.831 
2502.859 
2502.887 
2502.915 
2502.943 
2502.972 
2503.000 
2503.028 
2503.056 
2503.084 
2503.113 
2503.141 
2503.169 
2503.197 
2503.225 
2503.254 
2503.282 
2503.310 
2503.338 
2503.366 
2503.395 
2503.423 
2503.451 
2503.479 
2503.507 
2503.536 
2503.564 
2503.592 
2503.620 
2503.648 
2503.676 
2503.705 
2503.733 
2503.761 
2503.789 
2503.817 
2503.846 
2503.874 
2503.902 
2503.930 
2503.958 
2503.986 
2504.015 
2504.043 
2504.071 
2504.099 
2504.127 
2504.155 
2504.184 
2504.212 
2504.240 
2504.268 
2504.296 
2504.324 
2504.353 
2504.381 
2504.409 
2504.437 
2504.465 
2504.493 
2504.521 
2504.550 
2504.578 
2504.606 
2504.634 
2504.662 
2504.690 
2504.718 
2504.747 
2504.775 
2504.803 
2504.831 
2504.859 
2504.887 
2504.915 
2504.944 
2504.972 
2505.000 
2505.028 
2505.056 
2505.084 
2505.112 
2505.141 
2505.169 
2505.197 
2505.225 
2505.253 
2505.281 
2505.309 
2505.337 
2505.366 
2505.394 
2505.422 
2505.450 
2505.478 
2505.506 
2505.534 
2505.562 
2505.591 
2505.619 
2505.647 
2505.675 
2505.703 
2505.731 
2505.759 
2505.787 
2505.815 
2505.844 
2505.872 
2505.900 
2505.928 
2505.956 
2505.984 
2506.012 
2506.040 
2506.068 
2506.097 
2506.125 
2506.153 
2506.181 
2506.209 
2506.237 
2506.265 
2506.293 
2506.321 
2506.349 
2506.377 
2506.406 
2506.434 
2506.462 
2506.490 
2506.518 
2506.546 
2506.574 
2506.602 
2506.630 
2506.658 
2506.686 
2506.714 
2506.743 
2506.771 
2506.799 
2506.827 
2506.855 
2506.883 
2506.911 
2506.939 
2506.967 
2506.995 
2507.023 
2507.051 
2507.079 
2507.108 
2507.136 
2507.164 
2507.192 
2507.220 
2507.248 
2507.276 
2507.304 
2507.332 
2507.360 
2507.388 
2507.416 
2507.444 
2507.472 
2507.500 
2507.528 
2507.556 
2507.585 
2507.613 
2507.641 
2507.669 
2507.697 
2507.725 
2507.753 
2507.781 
2507.809 
2507.837 
2507.865 
2507.893 
2507.921 
2507.949 
2507.977 
2508.005 
2508.033 
2508.061 
2508.089 
2508.117 
2508.145 
2508.173 
2508.201 
2508.229 
2508.257 
2508.285 
2508.314 
2508.342 
2508.370 
2508.398 
2508.426 
2508.454 
2508.482 
2508.510 
2508.538 
2508.566 
2508.594 
2508.622 
2508.650 
2508.678 
2508.706 
2508.734 
2508.762 
2508.790 
2508.818 
2508.846 
2508.874 
2508.902 
2508.930 
2508.958 
2508.986 
2509.014 
2509.042 
2509.070 
2509.098 
2509.126 
2509.154 
2509.182 
2509.210 
2509.238 
2509.266 
2509.294 
2509.322 
2509.350 
2509.378 
2509.406 
2509.434 
2509.462 
2509.490 
2509.518 
2509.546 
2509.574 
2509.602 
2509.630 
2509.658 
2509.686 
2509.714 
2509.742 
2509.770 
2509.798 
2509.826 
2509.854 
2509.882 
2509.910 
2509.937 
2509.965 
2509.993 
2510.021 
2510.049 
2510.077 
2510.105 
2510.133 
2510.161 
2510.189 
2510.217 
2510.245 
2510.273 
2510.301 
2510.329 
2510.357 
2510.385 
2510.413 
2510.441 
2510.469 
2510.497 
2510.525 
2510.553 
2510.581 
2510.609 
2510.637 
2510.664 
2510.692 
2510.720 
2510.748 
2510.776 
2510.804 
2510.832 
2510.860 
2510.888 
2510.916 
2510.944 
2510.972 
2511.000 
2511.028 
2511.056 
2511.084 
2511.112 
2511.139 
2511.167 
2511.195 
2511.223 
2511.251 
2511.279 
2511.307 
2511.335 
2511.363 
2511.391 
2511.419 
2511.447 
2511.475 
2511.502 
2511.530 
2511.558 
2511.586 
2511.614 
2511.642 
2511.670 
2511.698 
2511.726 
2511.754 
2511.782 
2511.810 
2511.837 
2511.865 
2511.893 
2511.921 
2511.949 
2511.977 
2512.005 
2512.033 
2512.061 
2512.089 
2512.117 
2512.144 
2512.172 
2512.200 
2512.228 
2512.256 
2512.284 
2512.312 
2512.340 
2512.368 
2512.395 
2512.423 
2512.451 
2512.479 
2512.507 
2512.535 
2512.563 
2512.591 
2512.619 
2512.646 
2512.674 
2512.702 
2512.730 
2512.758 
2512.786 
2512.814 
2512.842 
2512.869 
2512.897 
2512.925 
2512.953 
2512.981 
2513.009 
2513.037 
2513.065 
2513.092 
2513.120 
2513.148 
2513.176 
2513.204 
2513.232 
2513.260 
2513.287 
2513.315 
2513.343 
2513.371 
2513.399 
2513.427 
2513.455 
2513.482 
2513.510 
2513.538 
2513.566 
2513.594 
2513.622 
2513.650 
2513.677 
2513.705 
2513.733 
2513.761 
2513.789 
2513.817 
2513.845 
2513.872 
2513.900 
2513.928 
2513.956 
2513.984 
2514.012 
2514.039 
2514.067 
2514.095 
2514.123 
2514.151 
2514.179 
2514.206 
2514.234 
2514.262 
2514.290 
2514.318 
2514.346 
2514.373 
2514.401 
2514.429 
2514.457 
2514.485 
2514.512 
2514.540 
2514.568 
2514.596 
2514.624 
2514.652 
2514.679 
2514.707 
2514.735 
2514.763 
2514.791 
2514.818 
2514.846 
2514.874 
2514.902 
2514.930 
2514.957 
2514.985 
2515.013 
2515.041 
2515.069 
2515.096 
2515.124 
2515.152 
2515.180 
2515.208 
2515.235 
2515.263 
2515.291 
2515.319 
2515.347 
2515.374 
2515.402 
2515.430 
2515.458 
2515.486 
2515.513 
2515.541 
2515.569 
2515.597 
2515.625 
2515.652 
2515.680 
2515.708 
2515.736 
2515.763 
2515.791 
2515.819 
2515.847 
2515.875 
2515.902 
2515.930 
2515.958 
2515.986 
2516.013 
2516.041 
2516.069 
2516.097 
2516.124 
2516.152 
2516.180 
2516.208 
2516.235 
2516.263 
2516.291 
2516.319 
2516.347 
2516.374 
2516.402 
2516.430 
2516.458 
2516.485 
2516.513 
2516.541 
2516.569 
2516.596 
2516.624 
2516.652 
2516.680 
2516.707 
2516.735 
2516.763 
2516.791 
2516.818 
2516.846 
2516.874 
2516.902 
2516.929 
2516.957 
2516.985 
2517.012 
2517.040 
2517.068 
2517.096 
2517.123 
2517.151 
2517.179 
2517.207 
2517.234 
2517.262 
2517.290 
2517.318 
2517.345 
2517.373 
2517.401 
2517.428 
2517.456 
2517.484 
2517.512 
2517.539 
2517.567 
2517.595 
2517.622 
2517.650 
2517.678 
2517.706 
2517.733 
2517.761 
2517.789 
2517.816 
2517.844 
2517.872 
2517.900 
2517.927 
2517.955 
2517.983 
2518.010 
2518.038 
2518.066 
2518.093 
2518.121 
2518.149 
2518.177 
2518.204 
2518.232 
2518.260 
2518.287 
2518.315 
2518.343 
2518.370 
2518.398 
2518.426 
2518.453 
2518.481 
2518.509 
2518.537 
2518.564 
2518.592 
2518.620 
2518.647 
2518.675 
2518.703 
2518.730 
2518.758 
2518.786 
2518.813 
2518.841 
2518.869 
2518.896 
2518.924 
2518.952 
2518.979 
2519.007 
2519.035 
2519.062 
2519.090 
2519.118 
2519.145 
2519.173 
2519.201 
2519.228 
2519.256 
2519.284 
2519.311 
2519.339 
2519.367 
2519.394 
2519.422 
2519.450 
2519.477 
2519.505 
2519.533 
2519.560 
2519.588 
2519.616 
2519.643 
2519.671 
2519.698 
2519.726 
2519.754 
2519.781 
2519.809 
2519.837 
2519.864 
2519.892 
2519.920 
2519.947 
2519.975 
2520.003 
2520.030 
2520.058 
2520.085 
2520.113 
2520.141 
2520.168 
2520.196 
2520.224 
2520.251 
2520.279 
2520.306 
2520.334 
2520.362 
2520.389 
2520.417 
2520.445 
2520.472 
2520.500 
2520.527 
2520.555 
2520.583 
2520.610 
2520.638 
2520.666 
2520.693 
2520.721 
2520.748 
2520.776 
2520.804 
2520.831 
2520.859 
2520.886 
2520.914 
2520.942 
2520.969 
2520.997 
2521.024 
2521.052 
2521.080 
2521.107 
2521.135 
2521.162 
2521.190 
2521.218 
2521.245 
2521.273 
2521.300 
2521.328 
2521.356 
2521.383 
2521.411 
2521.438 
2521.466 
2521.493 
2521.521 
2521.549 
2521.576 
2521.604 
2521.631 
2521.659 
2521.687 
2521.714 
2521.742 
2521.769 
2521.797 
2521.824 
2521.852 
2521.880 
2521.907 
2521.935 
2521.962 
2521.990 
2522.017 
2522.045 
2522.073 
2522.100 
2522.128 
2522.155 
2522.183 
2522.210 
2522.238 
2522.265 
2522.293 
2522.321 
2522.348 
2522.376 
2522.403 
2522.431 
2522.458 
2522.486 
2522.513 
2522.541 
2522.569 
2522.596 
2522.624 
2522.651 
2522.679 
2522.706 
2522.734 
2522.761 
2522.789 
2522.816 
2522.844 
2522.872 
2522.899 
2522.927 
2522.954 
2522.982 
2523.009 
2523.037 
2523.064 
2523.092 
2523.119 
2523.147 
2523.174 
2523.202 
2523.229 
2523.257 
2523.285 
2523.312 
2523.340 
2523.367 
2523.395 
2523.422 
2523.450 
2523.477 
2523.505 
2523.532 
2523.560 
2523.587 
2523.615 
2523.642 
2523.670 
2523.697 
2523.725 
2523.752 
2523.780 
2523.807 
2523.835 
2523.862 
2523.890 
2523.917 
2523.945 
2523.972 
2524.000 
2524.027 
2524.055 
2524.082 
2524.110 
2524.137 
2524.165 
2524.192 
2524.220 
2524.247 
2524.275 
2524.302 
2524.330 
2524.357 
2524.385 
2524.412 
2524.440 
2524.467 
2524.495 
2524.522 
2524.550 
2524.577 
2524.605 
2524.632 
2524.660 
2524.687 
2524.715 
2524.742 
2524.770 
2524.797 
2524.824 
2524.852 
2524.879 
2524.907 
2524.934 
2524.962 
2524.989 
2525.017 
2525.044 
2525.072 
2525.099 
2525.127 
2525.154 
2525.182 
2525.209 
2525.236 
2525.264 
2525.291 
2525.319 
2525.346 
2525.374 
2525.401 
2525.429 
2525.456 
2525.484 
2525.511 
2525.538 
2525.566 
2525.593 
2525.621 
2525.648 
2525.676 
2525.703 
2525.731 
2525.758 
2525.785 
2525.813 
2525.840 
2525.868 
2525.895 
2525.923 
2525.950 
2525.977 
2526.005 
2526.032 
2526.060 
2526.087 
2526.115 
2526.142 
2526.169 
2526.197 
2526.224 
2526.252 
2526.279 
2526.307 
2526.334 
2526.361 
2526.389 
2526.416 
2526.444 
2526.471 
2526.499 
2526.526 
2526.553 
2526.581 
2526.608 
2526.636 
2526.663 
2526.690 
2526.718 
2526.745 
2526.773 
2526.800 
2526.827 
2526.855 
2526.882 
2526.910 
2526.937 
2526.964 
2526.992 
2527.019 
2527.047 
2527.074 
2527.101 
2527.129 
2527.156 
2527.184 
2527.211 
2527.238 
2527.266 
2527.293 
2527.321 
2527.348 
2527.375 
2527.403 
2527.430 
2527.458 
2527.485 
2527.512 
2527.540 
2527.567 
2527.594 
2527.622 
2527.649 
2527.677 
2527.704 
2527.731 
2527.759 
2527.786 
2527.813 
2527.841 
2527.868 
2527.896 
2527.923 
2527.950 
2527.978 
2528.005 
2528.032 
2528.060 
2528.087 
2528.114 
2528.142 
2528.169 
2528.197 
2528.224 
2528.251 
2528.279 
2528.306 
2528.333 
2528.361 
2528.388 
2528.415 
2528.443 
2528.470 
2528.497 
2528.525 
2528.552 
2528.579 
2528.607 
2528.634 
2528.661 
2528.689 
2528.716 
2528.743 
2528.771 
2528.798 
2528.825 
2528.853 
2528.880 
2528.907 
2528.935 
2528.962 
2528.989 
2529.017 
2529.044 
2529.071 
2529.099 
2529.126 
2529.153 
2529.181 
2529.208 
2529.235 
2529.263 
2529.290 
2529.317 
2529.345 
2529.372 
2529.399 
2529.427 
2529.454 
2529.481 
2529.509 
2529.536 
2529.563 
2529.591 
2529.618 
2529.645 
2529.672 
2529.700 
2529.727 
2529.754 
2529.782 
2529.809 
2529.836 
2529.864 
2529.891 
2529.918 
2529.946 
2529.973 
2530.000 
2530.027 
2530.055 
2530.082 
2530.109 
2530.137 
2530.164 
2530.191 
2530.218 
2530.246 
2530.273 
2530.300 
2530.328 
2530.355 
2530.382 
2530.409 
2530.437 
2530.464 
2530.491 
2530.519 
2530.546 
2530.573 
2530.600 
2530.628 
2530.655 
2530.682 
2530.709 
2530.737 
2530.764 
2530.791 
2530.819 
2530.846 
2530.873 
2530.900 
2530.928 
2530.955 
2530.982 
2531.009 
2531.037 
2531.064 
2531.091 
2531.118 
2531.146 
2531.173 
2531.200 
2531.227 
2531.255 
2531.282 
2531.309 
2531.337 
2531.364 
2531.391 
2531.418 
2531.445 
2531.473 
2531.500 
2531.527 
2531.554 
2531.582 
2531.609 
2531.636 
2531.663 
2531.691 
2531.718 
2531.745 
2531.772 
2531.800 
2531.827 
2531.854 
2531.881 
2531.909 
2531.936 
2531.963 
2531.990 
2532.017 
2532.045 
2532.072 
2532.099 
2532.126 
2532.154 
2532.181 
2532.208 
2532.235 
2532.262 
2532.290 
2532.317 
2532.344 
2532.371 
2532.399 
2532.426 
2532.453 
2532.480 
2532.507 
2532.535 
2532.562 
2532.589 
2532.616 
2532.643 
2532.671 
2532.698 
2532.725 
2532.752 
2532.779 
2532.807 
2532.834 
2532.861 
2532.888 
2532.915 
2532.943 
2532.970 
2532.997 
2533.024 
2533.051 
2533.079 
2533.106 
2533.133 
2533.160 
2533.187 
2533.215 
2533.242 
2533.269 
2533.296 
2533.323 
2533.351 
2533.378 
2533.405 
2533.432 
2533.459 
2533.486 
2533.514 
2533.541 
2533.568 
2533.595 
2533.622 
2533.649 
2533.677 
2533.704 
2533.731 
2533.758 
2533.785 
2533.812 
2533.840 
2533.867 
2533.894 
2533.921 
2533.948 
2533.975 
2534.003 
2534.030 
2534.057 
2534.084 
2534.111 
2534.138 
2534.166 
2534.193 
2534.220 
2534.247 
2534.274 
2534.301 
2534.328 
2534.356 
2534.383 
2534.410 
2534.437 
2534.464 
2534.491 
2534.518 
2534.546 
2534.573 
2534.600 
2534.627 
2534.654 
2534.681 
2534.708 
2534.736 
2534.763 
2534.790 
2534.817 
2534.844 
2534.871 
2534.898 
2534.925 
2534.953 
2534.980 
2535.007 
2535.034 
2535.061 
2535.088 
2535.115 
2535.142 
2535.170 
2535.197 
2535.224 
2535.251 
2535.278 
2535.305 
2535.332 
2535.359 
2535.387 
2535.414 
2535.441 
2535.468 
2535.495 
2535.522 
2535.549 
2535.576 
2535.603 
2535.630 
2535.658 
2535.685 
2535.712 
2535.739 
2535.766 
2535.793 
2535.820 
2535.847 
2535.874 
2535.901 
2535.929 
2535.956 
2535.983 
2536.010 
2536.037 
2536.064 
2536.091 
2536.118 
2536.145 
2536.172 
2536.199 
2536.227 
2536.254 
2536.281 
2536.308 
2536.335 
2536.362 
2536.389 
2536.416 
2536.443 
2536.470 
2536.497 
2536.524 
2536.551 
2536.579 
2536.606 
2536.633 
2536.660 
2536.687 
2536.714 
2536.741 
2536.768 
2536.795 
2536.822 
2536.849 
2536.876 
2536.903 
2536.930 
2536.957 
2536.985 
2537.012 
2537.039 
2537.066 
2537.093 
2537.120 
2537.147 
2537.174 
2537.201 
2537.228 
2537.255 
2537.282 
2537.309 
2537.336 
2537.363 
2537.390 
2537.417 
2537.444 
2537.471 
2537.498 
2537.525 
2537.552 
2537.580 
2537.607 
2537.634 
2537.661 
2537.688 
2537.715 
2537.742 
2537.769 
2537.796 
2537.823 
2537.850 
2537.877 
2537.904 
2537.931 
2537.958 
2537.985 
2538.012 
2538.039 
2538.066 
2538.093 
2538.120 
2538.147 
2538.174 
2538.201 
2538.228 
2538.255 
2538.282 
2538.309 
2538.336 
2538.363 
2538.390 
2538.417 
2538.444 
2538.471 
2538.498 
2538.525 
2538.552 
2538.579 
2538.606 
2538.633 
2538.660 
2538.687 
2538.714 
2538.741 
2538.768 
2538.795 
2538.822 
2538.849 
2538.876 
2538.903 
2538.930 
2538.957 
2538.984 
2539.011 
2539.038 
2539.065 
2539.092 
2539.119 
2539.146 
2539.173 
2539.200 
2539.227 
2539.254 
2539.281 
2539.308 
2539.335 
2539.362 
2539.389 
2539.416 
2539.443 
2539.470 
2539.497 
2539.524 
2539.551 
2539.578 
2539.605 
2539.632 
2539.659 
2539.686 
2539.713 
2539.739 
2539.766 
2539.793 
2539.820 
2539.847 
2539.874 
2539.901 
2539.928 
2539.955 
2539.982 
2540.009 
2540.036 
2540.063 
2540.090 
2540.117 
2540.144 
2540.171 
2540.198 
2540.225 
2540.252 
2540.279 
2540.305 
2540.332 
2540.359 
2540.386 
2540.413 
2540.440 
2540.467 
2540.494 
2540.521 
2540.548 
2540.575 
2540.602 
2540.629 
2540.656 
2540.683 
2540.710 
2540.736 
2540.763 
2540.790 
2540.817 
2540.844 
2540.871 
2540.898 
2540.925 
2540.952 
2540.979 
2541.006 
2541.033 
2541.059 
2541.086 
2541.113 
2541.140 
2541.167 
2541.194 
2541.221 
2541.248 
2541.275 
2541.302 
2541.329 
2541.356 
2541.382 
2541.409 
2541.436 
2541.463 
2541.490 
2541.517 
2541.544 
2541.571 
2541.598 
2541.625 
2541.651 
2541.678 
2541.705 
2541.732 
2541.759 
2541.786 
2541.813 
2541.840 
2541.867 
2541.893 
2541.920 
2541.947 
2541.974 
2542.001 
2542.028 
2542.055 
2542.082 
2542.109 
2542.135 
2542.162 
2542.189 
2542.216 
2542.243 
2542.270 
2542.297 
2542.324 
2542.350 
2542.377 
2542.404 
2542.431 
2542.458 
2542.485 
2542.512 
2542.538 
2542.565 
2542.592 
2542.619 
2542.646 
2542.673 
2542.700 
2542.727 
2542.753 
2542.780 
2542.807 
2542.834 
2542.861 
2542.888 
2542.915 
2542.941 
2542.968 
2542.995 
2543.022 
2543.049 
2543.076 
2543.102 
2543.129 
2543.156 
2543.183 
2543.210 
2543.237 
2543.264 
2543.290 
2543.317 
2543.344 
2543.371 
2543.398 
2543.425 
2543.451 
2543.478 
2543.505 
2543.532 
2543.559 
2543.586 
2543.612 
2543.639 
2543.666 
2543.693 
2543.720 
2543.746 
2543.773 
2543.800 
2543.827 
2543.854 
2543.881 
2543.907 
2543.934 
2543.961 
2543.988 
2544.015 
2544.041 
2544.068 
2544.095 
2544.122 
2544.149 
2544.176 
2544.202 
2544.229 
2544.256 
2544.283 
2544.310 
2544.336 
2544.363 
2544.390 
2544.417 
2544.444 
2544.470 
2544.497 
2544.524 
2544.551 
2544.578 
2544.604 
2544.631 
2544.658 
2544.685 
2544.712 
2544.738 
2544.765 
2544.792 
2544.819 
2544.845 
2544.872 
2544.899 
2544.926 
2544.953 
2544.979 
2545.006 
2545.033 
2545.060 
2545.086 
2545.113 
2545.140 
2545.167 
2545.194 
2545.220 
2545.247 
2545.274 
2545.301 
2545.327 
2545.354 
2545.381 
2545.408 
2545.434 
2545.461 
2545.488 
2545.515 
2545.542 
2545.568 
2545.595 
2545.622 
2545.649 
2545.675 
2545.702 
2545.729 
2545.756 
2545.782 
2545.809 
2545.836 
2545.863 
2545.889 
2545.916 
2545.943 
2545.970 
2545.996 
2546.023 
2546.050 
2546.077 
2546.103 
2546.130 
2546.157 
2546.184 
2546.210 
2546.237 
2546.264 
2546.290 
2546.317 
2546.344 
2546.371 
2546.397 
2546.424 
2546.451 
2546.478 
2546.504 
2546.531 
2546.558 
2546.585 
2546.611 
2546.638 
2546.665 
2546.691 
2546.718 
2546.745 
2546.772 
2546.798 
2546.825 
2546.852 
2546.878 
2546.905 
2546.932 
2546.959 
2546.985 
2547.012 
2547.039 
2547.065 
2547.092 
2547.119 
2547.146 
2547.172 
2547.199 
2547.226 
2547.252 
2547.279 
2547.306 
2547.332 
2547.359 
2547.386 
2547.413 
2547.439 
2547.466 
2547.493 
2547.519 
2547.546 
2547.573 
2547.599 
2547.626 
2547.653 
2547.679 
2547.706 
2547.733 
2547.759 
2547.786 
2547.813 
2547.840 
2547.866 
2547.893 
2547.920 
2547.946 
2547.973 
2548.000 
2548.026 
2548.053 
2548.080 
2548.106 
2548.133 
2548.160 
2548.186 
2548.213 
2548.240 
2548.266 
2548.293 
2548.320 
2548.346 
2548.373 
2548.400 
2548.426 
2548.453 
2548.480 
2548.506 
2548.533 
2548.560 
2548.586 
2548.613 
2548.640 
2548.666 
2548.693 
2548.719 
2548.746 
2548.773 
2548.799 
2548.826 
2548.853 
2548.879 
2548.906 
2548.933 
2548.959 
2548.986 
2549.013 
2549.039 
2549.066 
2549.093 
2549.119 
2549.146 
2549.172 
2549.199 
2549.226 
2549.252 
2549.279 
2549.306 
2549.332 
2549.359 
2549.385 
2549.412 
2549.439 
2549.465 
2549.492 
2549.519 
2549.545 
2549.572 
2549.598 
2549.625 
2549.652 
2549.678 
2549.705 
2549.732 
2549.758 
2549.785 
2549.811 
2549.838 
2549.865 
2549.891 
2549.918 
2549.944 
2549.971 
2549.998 
2550.024 
2550.051 
2550.077 
2550.104 
2550.131 
2550.157 
2550.184 
2550.210 
2550.237 
2550.264 
2550.290 
2550.317 
2550.343 
2550.370 
2550.397 
2550.423 
2550.450 
2550.476 
2550.503 
2550.530 
2550.556 
2550.583 
2550.609 
2550.636 
2550.662 
2550.689 
2550.716 
2550.742 
2550.769 
2550.795 
2550.822 
2550.849 
2550.875 
2550.902 
2550.928 
2550.955 
2550.981 
2551.008 
2551.035 
2551.061 
2551.088 
2551.114 
2551.141 
2551.167 
2551.194 
2551.220 
2551.247 
2551.274 
2551.300 
2551.327 
2551.353 
2551.380 
2551.406 
2551.433 
2551.460 
2551.486 
2551.513 
2551.539 
2551.566 
2551.592 
2551.619 
2551.645 
2551.672 
2551.698 
2551.725 
2551.752 
2551.778 
2551.805 
2551.831 
2551.858 
2551.884 
2551.911 
2551.937 
2551.964 
2551.990 
2552.017 
2552.043 
2552.070 
2552.097 
2552.123 
2552.150 
2552.176 
2552.203 
2552.229 
2552.256 
2552.282 
2552.309 
2552.335 
2552.362 
2552.388 
2552.415 
2552.441 
2552.468 
2552.494 
2552.521 
2552.547 
2552.574 
2552.600 
2552.627 
2552.653 
2552.680 
2552.707 
2552.733 
2552.760 
2552.786 
2552.813 
2552.839 
2552.866 
2552.892 
2552.919 
2552.945 
2552.972 
2552.998 
2553.025 
2553.051 
2553.078 
2553.104 
2553.131 
2553.157 
2553.184 
2553.210 
2553.237 
2553.263 
2553.290 
2553.316 
2553.342 
2553.369 
2553.395 
2553.422 
2553.448 
2553.475 
2553.501 
2553.528 
2553.554 
2553.581 
2553.607 
2553.634 
2553.660 
2553.687 
2553.713 
2553.740 
2553.766 
2553.793 
2553.819 
2553.846 
2553.872 
2553.899 
2553.925 
2553.951 
2553.978 
2554.004 
2554.031 
2554.057 
2554.084 
2554.110 
2554.137 
2554.163 
2554.190 
2554.216 
2554.243 
2554.269 
2554.295 
2554.322 
2554.348 
2554.375 
2554.401 
2554.428 
2554.454 
2554.481 
2554.507 
2554.534 
2554.560 
2554.586 
2554.613 
2554.639 
2554.666 
2554.692 
2554.719 
2554.745 
2554.771 
2554.798 
2554.824 
2554.851 
2554.877 
2554.904 
2554.930 
2554.957 
2554.983 
2555.009 
2555.036 
2555.062 
2555.089 
2555.115 
2555.142 
2555.168 
2555.194 
2555.221 
2555.247 
2555.274 
2555.300 
2555.326 
2555.353 
2555.379 
2555.406 
2555.432 
2555.459 
2555.485 
2555.511 
2555.538 
2555.564 
2555.591 
2555.617 
2555.643 
2555.670 
2555.696 
2555.723 
2555.749 
2555.775 
2555.802 
2555.828 
2555.855 
2555.881 
2555.907 
2555.934 
2555.960 
2555.987 
2556.013 
2556.039 
2556.066 
2556.092 
2556.119 
2556.145 
2556.171 
2556.198 
2556.224 
2556.251 
2556.277 
2556.303 
2556.330 
2556.356 
2556.382 
2556.409 
2556.435 
2556.462 
2556.488 
2556.514 
2556.541 
2556.567 
2556.593 
2556.620 
2556.646 
2556.673 
2556.699 
2556.725 
2556.752 
2556.778 
2556.804 
2556.831 
2556.857 
2556.884 
2556.910 
2556.936 
2556.963 
2556.989 
2557.015 
2557.042 
2557.068 
2557.094 
2557.121 
2557.147 
2557.173 
2557.200 
2557.226 
2557.253 
2557.279 
2557.305 
2557.332 
2557.358 
2557.384 
2557.411 
2557.437 
2557.463 
2557.490 
2557.516 
2557.542 
2557.569 
2557.595 
2557.621 
2557.648 
2557.674 
2557.700 
2557.727 
2557.753 
2557.779 
2557.806 
2557.832 
2557.858 
2557.885 
2557.911 
2557.937 
2557.964 
2557.990 
2558.016 
2558.043 
2558.069 
2558.095 
2558.122 
2558.148 
2558.174 
2558.201 
2558.227 
2558.253 
2558.279 
2558.306 
2558.332 
2558.358 
2558.385 
2558.411 
2558.437 
2558.464 
2558.490 
2558.516 
2558.543 
2558.569 
2558.595 
2558.621 
2558.648 
2558.674 
2558.700 
2558.727 
2558.753 
2558.779 
2558.806 
2558.832 
2558.858 
2558.884 
2558.911 
2558.937 
2558.963 
2558.990 
2559.016 
2559.042 
2559.068 
2559.095 
2559.121 
2559.147 
2559.174 
2559.200 
2559.226 
2559.252 
2559.279 
2559.305 
2559.331 
2559.358 
2559.384 
2559.410 
2559.436 
2559.463 
2559.489 
2559.515 
2559.541 
2559.568 
2559.594 
2559.620 
2559.647 
2559.673 
2559.699 
2559.725 
2559.752 
2559.778 
2559.804 
2559.830 
2559.857 
2559.883 
2559.909 
2559.935 
2559.962 
2559.988 
2560.014 
2560.040 
2560.067 
2560.093 
2560.119 
2560.145 
2560.172 
2560.198 
2560.224 
2560.250 
2560.277 
2560.303 
2560.329 
2560.355 
2560.382 
2560.408 
2560.434 
2560.460 
2560.487 
2560.513 
2560.539 
2560.565 
2560.591 
2560.618 
2560.644 
2560.670 
2560.696 
2560.723 
2560.749 
2560.775 
2560.801 
2560.828 
2560.854 
2560.880 
2560.906 
2560.932 
2560.959 
2560.985 
2561.011 
2561.037 
2561.063 
2561.090 
2561.116 
2561.142 
2561.168 
2561.195 
2561.221 
2561.247 
2561.273 
2561.299 
2561.326 
2561.352 
2561.378 
2561.404 
2561.430 
2561.457 
2561.483 
2561.509 
2561.535 
2561.561 
2561.588 
2561.614 
2561.640 
2561.666 
2561.692 
2561.719 
2561.745 
2561.771 
2561.797 
2561.823 
2561.850 
2561.876 
2561.902 
2561.928 
2561.954 
2561.980 
2562.007 
2562.033 
2562.059 
2562.085 
2562.111 
2562.138 
2562.164 
2562.190 
2562.216 
2562.242 
2562.268 
2562.295 
2562.321 
2562.347 
2562.373 
2562.399 
2562.425 
2562.452 
2562.478 
2562.504 
2562.530 
2562.556 
2562.582 
2562.609 
2562.635 
2562.661 
2562.687 
2562.713 
2562.739 
2562.766 
2562.792 
2562.818 
2562.844 
2562.870 
2562.896 
2562.922 
2562.949 
2562.975 
2563.001 
2563.027 
2563.053 
2563.079 
2563.105 
2563.132 
2563.158 
2563.184 
2563.210 
2563.236 
2563.262 
2563.288 
2563.315 
2563.341 
2563.367 
2563.393 
2563.419 
2563.445 
2563.471 
2563.497 
2563.524 
2563.550 
2563.576 
2563.602 
2563.628 
2563.654 
2563.680 
2563.706 
2563.733 
2563.759 
2563.785 
2563.811 
2563.837 
2563.863 
2563.889 
2563.915 
2563.942 
2563.968 
2563.994 
2564.020 
2564.046 
2564.072 
2564.098 
2564.124 
2564.150 
2564.176 
2564.203 
2564.229 
2564.255 
2564.281 
2564.307 
2564.333 
2564.359 
2564.385 
2564.411 
2564.437 
2564.464 
2564.490 
2564.516 
2564.542 
2564.568 
2564.594 
2564.620 
2564.646 
2564.672 
2564.698 
2564.724 
2564.751 
2564.777 
2564.803 
2564.829 
2564.855 
2564.881 
2564.907 
2564.933 
2564.959 
2564.985 
2565.011 
2565.037 
2565.064 
2565.090 
2565.116 
2565.142 
2565.168 
2565.194 
2565.220 
2565.246 
2565.272 
2565.298 
2565.324 
2565.350 
2565.376 
2565.402 
2565.428 
2565.454 
2565.481 
2565.507 
2565.533 
2565.559 
2565.585 
2565.611 
2565.637 
2565.663 
2565.689 
2565.715 
2565.741 
2565.767 
2565.793 
2565.819 
2565.845 
2565.871 
2565.897 
2565.923 
2565.949 
2565.975 
2566.002 
2566.028 
2566.054 
2566.080 
2566.106 
2566.132 
2566.158 
2566.184 
2566.210 
2566.236 
2566.262 
2566.288 
2566.314 
2566.340 
2566.366 
2566.392 
2566.418 
2566.444 
2566.470 
2566.496 
2566.522 
2566.548 
2566.574 
2566.600 
2566.626 
2566.652 
2566.678 
2566.704 
2566.730 
2566.756 
2566.782 
2566.808 
2566.834 
2566.860 
2566.886 
2566.912 
2566.938 
2566.964 
2566.990 
2567.016 
2567.042 
2567.068 
2567.094 
2567.120 
2567.146 
2567.172 
2567.198 
2567.224 
2567.250 
2567.276 
2567.302 
2567.328 
2567.354 
2567.380 
2567.406 
2567.432 
2567.458 
2567.484 
2567.510 
2567.536 
2567.562 
2567.588 
2567.614 
2567.640 
2567.666 
2567.692 
2567.718 
2567.744 
2567.770 
2567.796 
2567.822 
2567.848 
2567.874 
2567.900 
2567.926 
2567.952 
2567.978 
2568.004 
2568.030 
2568.056 
2568.082 
2568.108 
2568.134 
2568.160 
2568.186 
2568.211 
2568.237 
2568.263 
2568.289 
2568.315 
2568.341 
2568.367 
2568.393 
2568.419 
2568.445 
2568.471 
2568.497 
2568.523 
2568.549 
2568.575 
2568.601 
2568.627 
2568.653 
2568.679 
2568.705 
2568.730 
2568.756 
2568.782 
2568.808 
2568.834 
2568.860 
2568.886 
2568.912 
2568.938 
2568.964 
2568.990 
2569.016 
2569.042 
2569.068 
2569.094 
2569.119 
2569.145 
2569.171 
2569.197 
2569.223 
2569.249 
2569.275 
2569.301 
2569.327 
2569.353 
2569.379 
2569.405 
2569.431 
2569.456 
2569.482 
2569.508 
2569.534 
2569.560 
2569.586 
2569.612 
2569.638 
2569.664 
2569.690 
2569.716 
2569.741 
2569.767 
2569.793 
2569.819 
2569.845 
2569.871 
2569.897 
2569.923 
2569.949 
2569.975 
2570.000 
2570.026 
2570.052 
2570.078 
2570.104 
2570.130 
2570.156 
2570.182 
2570.208 
2570.234 
2570.259 
2570.285 
2570.311 
2570.337 
2570.363 
2570.389 
2570.415 
2570.441 
2570.466 
2570.492 
2570.518 
2570.544 
2570.570 
2570.596 
2570.622 
2570.648 
2570.673 
2570.699 
2570.725 
2570.751 
2570.777 
2570.803 
2570.829 
2570.855 
2570.880 
2570.906 
2570.932 
2570.958 
2570.984 
2571.010 
2571.036 
2571.061 
2571.087 
2571.113 
2571.139 
2571.165 
2571.191 
2571.217 
2571.242 
2571.268 
2571.294 
2571.320 
2571.346 
2571.372 
2571.397 
2571.423 
2571.449 
2571.475 
2571.501 
2571.527 
2571.553 
2571.578 
2571.604 
2571.630 
2571.656 
2571.682 
2571.708 
2571.733 
2571.759 
2571.785 
2571.811 
2571.837 
2571.863 
2571.888 
2571.914 
2571.940 
2571.966 
2571.992 
2572.018 
2572.043 
2572.069 
2572.095 
2572.121 
2572.147 
2572.172 
2572.198 
2572.224 
2572.250 
2572.276 
2572.302 
2572.327 
2572.353 
2572.379 
2572.405 
2572.431 
2572.456 
2572.482 
2572.508 
2572.534 
2572.560 
2572.585 
2572.611 
2572.637 
2572.663 
2572.689 
2572.714 
2572.740 
2572.766 
2572.792 
2572.818 
2572.843 
2572.869 
2572.895 
2572.921 
2572.947 
2572.972 
2572.998 
2573.024 
2573.050 
2573.075 
2573.101 
2573.127 
2573.153 
2573.179 
2573.204 
2573.230 
2573.256 
2573.282 
2573.307 
2573.333 
2573.359 
2573.385 
2573.411 
2573.436 
2573.462 
2573.488 
2573.514 
2573.539 
2573.565 
2573.591 
2573.617 
2573.643 
2573.668 
2573.694 
2573.720 
2573.746 
2573.771 
2573.797 
2573.823 
2573.849 
2573.874 
2573.900 
2573.926 
2573.952 
2573.977 
2574.003 
2574.029 
2574.055 
2574.080 
2574.106 
2574.132 
2574.158 
2574.183 
2574.209 
2574.235 
2574.261 
2574.286 
2574.312 
2574.338 
2574.364 
2574.389 
2574.415 
2574.441 
2574.466 
2574.492 
2574.518 
2574.544 
2574.569 
2574.595 
2574.621 
2574.647 
2574.672 
2574.698 
2574.724 
2574.750 
2574.775 
2574.801 
2574.827 
2574.852 
2574.878 
2574.904 
2574.930 
2574.955 
2574.981 
2575.007 
2575.032 
2575.058 
2575.084 
2575.110 
2575.135 
2575.161 
2575.187 
2575.212 
2575.238 
2575.264 
2575.290 
2575.315 
2575.341 
2575.367 
2575.392 
2575.418 
2575.444 
2575.469 
2575.495 
2575.521 
2575.547 
2575.572 
2575.598 
2575.624 
2575.649 
2575.675 
2575.701 
2575.726 
2575.752 
2575.778 
2575.803 
2575.829 
2575.855 
2575.880 
2575.906 
2575.932 
2575.958 
2575.983 
2576.009 
2576.035 
2576.060 
2576.086 
2576.112 
2576.137 
2576.163 
2576.189 
2576.214 
2576.240 
2576.266 
2576.291 
2576.317 
2576.343 
2576.368 
2576.394 
2576.420 
2576.445 
2576.471 
2576.497 
2576.522 
2576.548 
2576.574 
2576.599 
2576.625 
2576.651 
2576.676 
2576.702 
2576.728 
2576.753 
2576.779 
2576.804 
2576.830 
2576.856 
2576.881 
2576.907 
2576.933 
2576.958 
2576.984 
2577.010 
2577.035 
2577.061 
2577.087 
2577.112 
2577.138 
2577.163 
2577.189 
2577.215 
2577.240 
2577.266 
2577.292 
2577.317 
2577.343 
2577.369 
2577.394 
2577.420 
2577.445 
2577.471 
2577.497 
2577.522 
2577.548 
2577.574 
2577.599 
2577.625 
2577.650 
2577.676 
2577.702 
2577.727 
2577.753 
2577.778 
2577.804 
2577.830 
2577.855 
2577.881 
2577.907 
2577.932 
2577.958 
2577.983 
2578.009 
2578.035 
2578.060 
2578.086 
2578.111 
2578.137 
2578.163 
2578.188 
2578.214 
2578.239 
2578.265 
2578.291 
2578.316 
2578.342 
2578.367 
2578.393 
2578.419 
2578.444 
2578.470 
2578.495 
2578.521 
2578.547 
2578.572 
2578.598 
2578.623 
2578.649 
2578.674 
2578.700 
2578.726 
2578.751 
2578.777 
2578.802 
2578.828 
2578.853 
2578.879 
2578.905 
2578.930 
2578.956 
2578.981 
2579.007 
2579.032 
2579.058 
2579.084 
2579.109 
2579.135 
2579.160 
2579.186 
2579.211 
2579.237 
2579.263 
2579.288 
2579.314 
2579.339 
2579.365 
2579.390 
2579.416 
2579.441 
2579.467 
2579.493 
2579.518 
2579.544 
2579.569 
2579.595 
2579.620 
2579.646 
2579.671 
2579.697 
2579.722 
2579.748 
2579.774 
2579.799 
2579.825 
2579.850 
2579.876 
2579.901 
2579.927 
2579.952 
2579.978 
2580.003 
2580.029 
2580.054 
2580.080 
2580.106 
2580.131 
2580.157 
2580.182 
2580.208 
2580.233 
2580.259 
2580.284 
2580.310 
2580.335 
2580.361 
2580.386 
2580.412 
2580.437 
2580.463 
2580.488 
2580.514 
2580.539 
2580.565 
2580.590 
2580.616 
2580.641 
2580.667 
2580.692 
2580.718 
2580.743 
2580.769 
2580.795 
2580.820 
2580.846 
2580.871 
2580.897 
2580.922 
2580.948 
2580.973 
2580.999 
2581.024 
2581.050 
2581.075 
2581.100 
2581.126 
2581.151 
2581.177 
2581.202 
2581.228 
2581.253 
2581.279 
2581.304 
2581.330 
2581.355 
2581.381 
2581.406 
2581.432 
2581.457 
2581.483 
2581.508 
2581.534 
2581.559 
2581.585 
2581.610 
2581.636 
2581.661 
2581.687 
2581.712 
2581.738 
2581.763 
2581.788 
2581.814 
2581.839 
2581.865 
2581.890 
2581.916 
2581.941 
2581.967 
2581.992 
2582.018 
2582.043 
2582.069 
2582.094 
2582.119 
2582.145 
2582.170 
2582.196 
2582.221 
2582.247 
2582.272 
2582.298 
2582.323 
2582.349 
2582.374 
2582.399 
2582.425 
2582.450 
2582.476 
2582.501 
2582.527 
2582.552 
2582.578 
2582.603 
2582.628 
2582.654 
2582.679 
2582.705 
2582.730 
2582.756 
2582.781 
2582.806 
2582.832 
2582.857 
2582.883 
2582.908 
2582.934 
2582.959 
2582.984 
2583.010 
2583.035 
2583.061 
2583.086 
2583.112 
2583.137 
2583.162 
2583.188 
2583.213 
2583.239 
2583.264 
2583.289 
2583.315 
2583.340 
2583.366 
2583.391 
2583.417 
2583.442 
2583.467 
2583.493 
2583.518 
2583.544 
2583.569 
2583.594 
2583.620 
2583.645 
2583.671 
2583.696 
2583.721 
2583.747 
2583.772 
2583.798 
2583.823 
2583.848 
2583.874 
2583.899 
2583.925 
2583.950 
2583.975 
2584.001 
2584.026 
2584.051 
2584.077 
2584.102 
2584.128 
2584.153 
2584.178 
2584.204 
2584.229 
2584.255 
2584.280 
2584.305 
2584.331 
2584.356 
2584.381 
2584.407 
2584.432 
2584.457 
2584.483 
2584.508 
2584.534 
2584.559 
2584.584 
2584.610 
2584.635 
2584.660 
2584.686 
2584.711 
2584.737 
2584.762 
2584.787 
2584.813 
2584.838 
2584.863 
2584.889 
2584.914 
2584.939 
2584.965 
2584.990 
2585.015 
2585.041 
2585.066 
2585.091 
2585.117 
2585.142 
2585.168 
2585.193 
2585.218 
2585.244 
2585.269 
2585.294 
2585.320 
2585.345 
2585.370 
2585.396 
2585.421 
2585.446 
2585.472 
2585.497 
2585.522 
2585.548 
2585.573 
2585.598 
2585.624 
2585.649 
2585.674 
2585.700 
2585.725 
2585.750 
2585.775 
2585.801 
2585.826 
2585.851 
2585.877 
2585.902 
2585.927 
2585.953 
2585.978 
2586.003 
2586.029 
2586.054 
2586.079 
2586.105 
2586.130 
2586.155 
2586.181 
2586.206 
2586.231 
2586.256 
2586.282 
2586.307 
2586.332 
2586.358 
2586.383 
2586.408 
2586.434 
2586.459 
2586.484 
2586.509 
2586.535 
2586.560 
2586.585 
2586.611 
2586.636 
2586.661 
2586.686 
2586.712 
2586.737 
2586.762 
2586.788 
2586.813 
2586.838 
2586.863 
2586.889 
2586.914 
2586.939 
2586.965 
2586.990 
2587.015 
2587.040 
2587.066 
2587.091 
2587.116 
2587.142 
2587.167 
2587.192 
2587.217 
2587.243 
2587.268 
2587.293 
2587.318 
2587.344 
2587.369 
2587.394 
2587.419 
2587.445 
2587.470 
2587.495 
2587.520 
2587.546 
2587.571 
2587.596 
2587.622 
2587.647 
2587.672 
2587.697 
2587.723 
2587.748 
2587.773 
2587.798 
2587.824 
2587.849 
2587.874 
2587.899 
2587.924 
2587.950 
2587.975 
2588.000 
2588.025 
2588.051 
2588.076 
2588.101 
2588.126 
2588.152 
2588.177 
2588.202 
2588.227 
2588.253 
2588.278 
2588.303 
2588.328 
2588.353 
2588.379 
2588.404 
2588.429 
2588.454 
2588.480 
2588.505 
2588.530 
2588.555 
2588.580 
2588.606 
2588.631 
2588.656 
2588.681 
2588.707 
2588.732 
2588.757 
2588.782 
2588.807 
2588.833 
2588.858 
2588.883 
2588.908 
2588.933 
2588.959 
2588.984 
2589.009 
2589.034 
2589.059 
2589.085 
2589.110 
2589.135 
2589.160 
2589.185 
2589.211 
2589.236 
2589.261 
2589.286 
2589.311 
2589.337 
2589.362 
2589.387 
2589.412 
2589.437 
2589.463 
2589.488 
2589.513 
2589.538 
2589.563 
2589.588 
2589.614 
2589.639 
2589.664 
2589.689 
2589.714 
2589.740 
2589.765 
2589.790 
2589.815 
2589.840 
2589.865 
2589.891 
2589.916 
2589.941 
2589.966 
2589.991 
2590.016 
2590.042 
2590.067 
2590.092 
2590.117 
2590.142 
2590.167 
2590.193 
2590.218 
2590.243 
2590.268 
2590.293 
2590.318 
2590.344 
2590.369 
2590.394 
2590.419 
2590.444 
2590.469 
2590.494 
2590.520 
2590.545 
2590.570 
2590.595 
2590.620 
2590.645 
2590.670 
2590.696 
2590.721 
2590.746 
2590.771 
2590.796 
2590.821 
2590.846 
2590.872 
2590.897 
2590.922 
2590.947 
2590.972 
2590.997 
2591.022 
2591.047 
2591.073 
2591.098 
2591.123 
2591.148 
2591.173 
2591.198 
2591.223 
2591.248 
2591.274 
2591.299 
2591.324 
2591.349 
2591.374 
2591.399 
2591.424 
2591.449 
2591.474 
2591.500 
2591.525 
2591.550 
2591.575 
2591.600 
2591.625 
2591.650 
2591.675 
2591.700 
2591.726 
2591.751 
2591.776 
2591.801 
2591.826 
2591.851 
2591.876 
2591.901 
2591.926 
2591.951 
2591.977 
2592.002 
2592.027 
2592.052 
2592.077 
2592.102 
2592.127 
2592.152 
2592.177 
2592.202 
2592.227 
2592.252 
2592.278 
2592.303 
2592.328 
2592.353 
2592.378 
2592.403 
2592.428 
2592.453 
2592.478 
2592.503 
2592.528 
2592.553 
2592.578 
2592.604 
2592.629 
2592.654 
2592.679 
2592.704 
2592.729 
2592.754 
2592.779 
2592.804 
2592.829 
2592.854 
2592.879 
2592.904 
2592.929 
2592.954 
2592.979 
2593.005 
2593.030 
2593.055 
2593.080 
2593.105 
2593.130 
2593.155 
2593.180 
2593.205 
2593.230 
2593.255 
2593.280 
2593.305 
2593.330 
2593.355 
2593.380 
2593.405 
2593.430 
2593.455 
2593.480 
2593.505 
2593.530 
2593.556 
2593.581 
2593.606 
2593.631 
2593.656 
2593.681 
2593.706 
2593.731 
2593.756 
2593.781 
2593.806 
2593.831 
2593.856 
2593.881 
2593.906 
2593.931 
2593.956 
2593.981 
2594.006 
2594.031 
2594.056 
2594.081 
2594.106 
2594.131 
2594.156 
2594.181 
2594.206 
2594.231 
2594.256 
2594.281 
2594.306 
2594.331 
2594.356 
2594.381 
2594.406 
2594.431 
2594.456 
2594.481 
2594.506 
2594.531 
2594.556 
2594.581 
2594.606 
2594.631 
2594.656 
2594.681 
2594.706 
2594.731 
2594.756 
2594.781 
2594.806 
2594.831 
2594.856 
2594.881 
2594.906 
2594.931 
2594.956 
2594.981 
2595.006 
2595.031 
2595.056 
2595.081 
2595.106 
2595.131 
2595.156 
2595.181 
2595.206 
2595.231 
2595.256 
2595.281 
2595.306 
2595.331 
2595.356 
2595.381 
2595.405 
2595.430 
2595.455 
2595.480 
2595.505 
2595.530 
2595.555 
2595.580 
2595.605 
2595.630 
2595.655 
2595.680 
2595.705 
2595.730 
2595.755 
2595.780 
2595.805 
2595.830 
2595.855 
2595.880 
2595.905 
2595.930 
2595.954 
2595.979 
2596.004 
2596.029 
2596.054 
2596.079 
2596.104 
2596.129 
2596.154 
2596.179 
2596.204 
2596.229 
2596.254 
2596.279 
2596.304 
2596.329 
2596.353 
2596.378 
2596.403 
2596.428 
2596.453 
2596.478 
2596.503 
2596.528 
2596.553 
2596.578 
2596.603 
2596.628 
2596.653 
2596.678 
2596.702 
2596.727 
2596.752 
2596.777 
2596.802 
2596.827 
2596.852 
2596.877 
2596.902 
2596.927 
2596.952 
2596.976 
2597.001 
2597.026 
2597.051 
2597.076 
2597.101 
2597.126 
2597.151 
2597.176 
2597.201 
2597.225 
2597.250 
2597.275 
2597.300 
2597.325 
2597.350 
2597.375 
2597.400 
2597.425 
2597.450 
2597.474 
2597.499 
2597.524 
2597.549 
2597.574 
2597.599 
2597.624 
2597.649 
2597.673 
2597.698 
2597.723 
2597.748 
2597.773 
2597.798 
2597.823 
2597.848 
2597.872 
2597.897 
2597.922 
2597.947 
2597.972 
2597.997 
2598.022 
2598.047 
2598.071 
2598.096 
2598.121 
2598.146 
2598.171 
2598.196 
2598.221 
2598.245 
2598.270 
2598.295 
2598.320 
2598.345 
2598.370 
2598.395 
2598.419 
2598.444 
2598.469 
2598.494 
2598.519 
2598.544 
2598.569 
2598.593 
2598.618 
2598.643 
2598.668 
2598.693 
2598.718 
2598.742 
2598.767 
2598.792 
2598.817 
2598.842 
2598.867 
2598.891 
2598.916 
2598.941 
2598.966 
2598.991 
2599.016 
2599.040 
2599.065 
2599.090 
2599.115 
2599.140 
2599.165 
2599.189 
2599.214 
2599.239 
2599.264 
2599.289 
2599.314 
2599.338 
2599.363 
2599.388 
2599.413 
2599.438 
2599.462 
2599.487 
2599.512 
2599.537 
2599.562 
2599.587 
2599.611 
2599.636 
2599.661 
2599.686 
2599.711 
2599.735 
2599.760 
2599.785 
2599.810 
2599.835 
2599.859 
2599.884 
2599.909 
2599.934 
2599.959 
2599.983 
2600.008 
2600.033 
2600.058 
2600.082 
2600.107 
2600.132 
2600.157 
2600.182 
2600.206 
2600.231 
2600.256 
2600.281 
2600.306 
2600.330 
2600.355 
2600.380 
2600.405 
2600.429 
2600.454 
2600.479 
2600.504 
2600.529 
2600.553 
2600.578 
2600.603 
2600.628 
2600.652 
2600.677 
2600.702 
2600.727 
2600.751 
2600.776 
2600.801 
2600.826 
2600.851 
2600.875 
2600.900 
2600.925 
2600.950 
2600.974 
2600.999 
2601.024 
2601.049 
2601.073 
2601.098 
2601.123 
2601.148 
2601.172 
2601.197 
2601.222 
2601.247 
2601.271 
2601.296 
2601.321 
2601.346 
2601.370 
2601.395 
2601.420 
2601.445 
2601.469 
2601.494 
2601.519 
2601.543 
2601.568 
2601.593 
2601.618 
2601.642 
2601.667 
2601.692 
2601.717 
2601.741 
2601.766 
2601.791 
2601.816 
2601.840 
2601.865 
2601.890 
2601.914 
2601.939 
2601.964 
2601.989 
2602.013 
2602.038 
2602.063 
2602.087 
2602.112 
2602.137 
2602.162 
2602.186 
2602.211 
2602.236 
2602.260 
2602.285 
2602.310 
2602.335 
2602.359 
2602.384 
2602.409 
2602.433 
2602.458 
2602.483 
2602.507 
2602.532 
2602.557 
2602.582 
2602.606 
2602.631 
2602.656 
2602.680 
2602.705 
2602.730 
2602.754 
2602.779 
2602.804 
2602.828 
2602.853 
2602.878 
2602.903 
2602.927 
2602.952 
2602.977 
2603.001 
2603.026 
2603.051 
2603.075 
2603.100 
2603.125 
2603.149 
2603.174 
2603.199 
2603.223 
2603.248 
2603.273 
2603.297 
2603.322 
2603.347 
2603.371 
2603.396 
2603.421 
2603.445 
2603.470 
2603.495 
2603.519 
2603.544 
2603.569 
2603.593 
2603.618 
2603.643 
2603.667 
2603.692 
2603.717 
2603.741 
2603.766 
2603.791 
2603.815 
2603.840 
2603.864 
2603.889 
2603.914 
2603.938 
2603.963 
2603.988 
2604.012 
2604.037 
2604.062 
2604.086 
2604.111 
2604.136 
2604.160 
2604.185 
2604.209 
2604.234 
2604.259 
2604.283 
2604.308 
2604.333 
2604.357 
2604.382 
2604.407 
2604.431 
2604.456 
2604.480 
2604.505 
2604.530 
2604.554 
2604.579 
2604.603 
2604.628 
2604.653 
2604.677 
2604.702 
2604.727 
2604.751 
2604.776 
2604.800 
2604.825 
2604.850 
2604.874 
2604.899 
2604.923 
2604.948 
2604.973 
2604.997 
2605.022 
2605.046 
2605.071 
2605.096 
2605.120 
2605.145 
2605.170 
2605.194 
2605.219 
2605.243 
2605.268 
2605.292 
2605.317 
2605.342 
2605.366 
2605.391 
2605.415 
2605.440 
2605.465 
2605.489 
2605.514 
2605.538 
2605.563 
2605.588 
2605.612 
2605.637 
2605.661 
2605.686 
2605.710 
2605.735 
2605.760 
2605.784 
2605.809 
2605.833 
2605.858 
2605.882 
2605.907 
2605.932 
2605.956 
2605.981 
2606.005 
2606.030 
2606.054 
2606.079 
2606.104 
2606.128 
2606.153 
2606.177 
2606.202 
2606.226 
2606.251 
2606.275 
2606.300 
2606.325 
2606.349 
2606.374 
2606.398 
2606.423 
2606.447 
2606.472 
2606.496 
2606.521 
2606.546 
2606.570 
2606.595 
2606.619 
2606.644 
2606.668 
2606.693 
2606.717 
2606.742 
2606.766 
2606.791 
2606.815 
2606.840 
2606.865 
2606.889 
2606.914 
2606.938 
2606.963 
2606.987 
2607.012 
2607.036 
2607.061 
2607.085 
2607.110 
2607.134 
2607.159 
2607.183 
2607.208 
2607.232 
2607.257 
2607.282 
2607.306 
2607.331 
2607.355 
2607.380 
2607.404 
2607.429 
2607.453 
2607.478 
2607.502 
2607.527 
2607.551 
2607.576 
2607.600 
2607.625 
2607.649 
2607.674 
2607.698 
2607.723 
2607.747 
2607.772 
2607.796 
2607.821 
2607.845 
2607.870 
2607.894 
2607.919 
2607.943 
2607.968 
2607.992 
2608.017 
2608.041 
2608.066 
2608.090 
2608.115 
2608.139 
2608.164 
2608.188 
2608.213 
2608.237 
2608.261 
2608.286 
2608.310 
2608.335 
2608.359 
2608.384 
2608.408 
2608.433 
2608.457 
2608.482 
2608.506 
2608.531 
2608.555 
2608.580 
2608.604 
2608.629 
2608.653 
2608.678 
2608.702 
2608.726 
2608.751 
2608.775 
2608.800 
2608.824 
2608.849 
2608.873 
2608.898 
2608.922 
2608.947 
2608.971 
2608.996 
2609.020 
2609.044 
2609.069 
2609.093 
2609.118 
2609.142 
2609.167 
2609.191 
2609.216 
2609.240 
2609.264 
2609.289 
2609.313 
2609.338 
2609.362 
2609.387 
2609.411 
2609.436 
2609.460 
2609.484 
2609.509 
2609.533 
2609.558 
2609.582 
2609.607 
2609.631 
2609.655 
2609.680 
2609.704 
2609.729 
2609.753 
2609.778 
2609.802 
2609.826 
2609.851 
2609.875 
2609.900 
2609.924 
2609.948 
2609.973 
2609.997 
2610.022 
2610.046 
2610.071 
2610.095 
2610.119 
2610.144 
2610.168 
2610.193 
2610.217 
2610.241 
2610.266 
2610.290 
2610.315 
2610.339 
2610.363 
2610.388 
2610.412 
2610.437 
2610.461 
2610.485 
2610.510 
2610.534 
2610.559 
2610.583 
2610.607 
2610.632 
2610.656 
2610.681 
2610.705 
2610.729 
2610.754 
2610.778 
2610.802 
2610.827 
2610.851 
2610.876 
2610.900 
2610.924 
2610.949 
2610.973 
2610.998 
2611.022 
2611.046 
2611.071 
2611.095 
2611.119 
2611.144 
2611.168 
2611.192 
2611.217 
2611.241 
2611.266 
2611.290 
2611.314 
2611.339 
2611.363 
2611.387 
2611.412 
2611.436 
2611.461 
2611.485 
2611.509 
2611.534 
2611.558 
2611.582 
2611.607 
2611.631 
2611.655 
2611.680 
2611.704 
2611.728 
2611.753 
2611.777 
2611.801 
2611.826 
2611.850 
2611.874 
2611.899 
2611.923 
2611.947 
2611.972 
2611.996 
2612.021 
2612.045 
2612.069 
2612.094 
2612.118 
2612.142 
2612.167 
2612.191 
2612.215 
2612.240 
2612.264 
2612.288 
2612.312 
2612.337 
2612.361 
2612.385 
2612.410 
2612.434 
2612.458 
2612.483 
2612.507 
2612.531 
2612.556 
2612.580 
2612.604 
2612.629 
2612.653 
2612.677 
2612.702 
2612.726 
2612.750 
2612.775 
2612.799 
2612.823 
2612.847 
2612.872 
2612.896 
2612.920 
2612.945 
2612.969 
2612.993 
