# Wavelength table for hrs,echb,27
2043.000 
2043.023 
2043.046 
2043.069 
2043.092 
2043.114 
2043.137 
2043.160 
2043.183 
2043.206 
2043.229 
2043.252 
2043.275 
2043.298 
2043.321 
2043.343 
2043.366 
2043.389 
2043.412 
2043.435 
2043.458 
2043.481 
2043.504 
2043.527 
2043.549 
2043.572 
2043.595 
2043.618 
2043.641 
2043.664 
2043.687 
2043.710 
2043.732 
2043.755 
2043.778 
2043.801 
2043.824 
2043.847 
2043.870 
2043.893 
2043.915 
2043.938 
2043.961 
2043.984 
2044.007 
2044.030 
2044.053 
2044.075 
2044.098 
2044.121 
2044.144 
2044.167 
2044.190 
2044.213 
2044.235 
2044.258 
2044.281 
2044.304 
2044.327 
2044.350 
2044.373 
2044.395 
2044.418 
2044.441 
2044.464 
2044.487 
2044.510 
2044.533 
2044.555 
2044.578 
2044.601 
2044.624 
2044.647 
2044.670 
2044.693 
2044.715 
2044.738 
2044.761 
2044.784 
2044.807 
2044.830 
2044.852 
2044.875 
2044.898 
2044.921 
2044.944 
2044.967 
2044.989 
2045.012 
2045.035 
2045.058 
2045.081 
2045.104 
2045.126 
2045.149 
2045.172 
2045.195 
2045.218 
2045.241 
2045.263 
2045.286 
2045.309 
2045.332 
2045.355 
2045.378 
2045.400 
2045.423 
2045.446 
2045.469 
2045.492 
2045.514 
2045.537 
2045.560 
2045.583 
2045.606 
2045.629 
2045.651 
2045.674 
2045.697 
2045.720 
2045.743 
2045.765 
2045.788 
2045.811 
2045.834 
2045.857 
2045.879 
2045.902 
2045.925 
2045.948 
2045.971 
2045.993 
2046.016 
2046.039 
2046.062 
2046.085 
2046.107 
2046.130 
2046.153 
2046.176 
2046.199 
2046.221 
2046.244 
2046.267 
2046.290 
2046.313 
2046.335 
2046.358 
2046.381 
2046.404 
2046.426 
2046.449 
2046.472 
2046.495 
2046.518 
2046.540 
2046.563 
2046.586 
2046.609 
2046.632 
2046.654 
2046.677 
2046.700 
2046.723 
2046.745 
2046.768 
2046.791 
2046.814 
2046.837 
2046.859 
2046.882 
2046.905 
2046.928 
2046.950 
2046.973 
2046.996 
2047.019 
2047.041 
2047.064 
2047.087 
2047.110 
2047.133 
2047.155 
2047.178 
2047.201 
2047.224 
2047.246 
2047.269 
2047.292 
2047.315 
2047.337 
2047.360 
2047.383 
2047.406 
2047.428 
2047.451 
2047.474 
2047.497 
2047.519 
2047.542 
2047.565 
2047.588 
2047.610 
2047.633 
2047.656 
2047.679 
2047.701 
2047.724 
2047.747 
2047.770 
2047.792 
2047.815 
2047.838 
2047.861 
2047.883 
2047.906 
2047.929 
2047.952 
2047.974 
2047.997 
2048.020 
2048.042 
2048.065 
2048.088 
2048.111 
2048.133 
2048.156 
2048.179 
2048.202 
2048.224 
2048.247 
2048.270 
2048.292 
2048.315 
2048.338 
2048.361 
2048.383 
2048.406 
2048.429 
2048.452 
2048.474 
2048.497 
2048.520 
2048.542 
2048.565 
2048.588 
2048.611 
2048.633 
2048.656 
2048.679 
2048.701 
2048.724 
2048.747 
2048.770 
2048.792 
2048.815 
2048.838 
2048.860 
2048.883 
2048.906 
2048.928 
2048.951 
2048.974 
2048.997 
2049.019 
2049.042 
2049.065 
2049.087 
2049.110 
2049.133 
2049.155 
2049.178 
2049.201 
2049.224 
2049.246 
2049.269 
2049.292 
2049.314 
2049.337 
2049.360 
2049.382 
2049.405 
2049.428 
2049.450 
2049.473 
2049.496 
2049.518 
2049.541 
2049.564 
2049.587 
2049.609 
2049.632 
2049.655 
2049.677 
2049.700 
2049.723 
2049.745 
2049.768 
2049.791 
2049.813 
2049.836 
2049.859 
2049.881 
2049.904 
2049.927 
2049.949 
2049.972 
2049.995 
2050.017 
2050.040 
2050.063 
2050.085 
2050.108 
2050.131 
2050.153 
2050.176 
2050.199 
2050.221 
2050.244 
2050.267 
2050.289 
2050.312 
2050.335 
2050.357 
2050.380 
2050.403 
2050.425 
2050.448 
2050.471 
2050.493 
2050.516 
2050.539 
2050.561 
2050.584 
2050.606 
2050.629 
2050.652 
2050.674 
2050.697 
2050.720 
2050.742 
2050.765 
2050.788 
2050.810 
2050.833 
2050.856 
2050.878 
2050.901 
2050.923 
2050.946 
2050.969 
2050.991 
2051.014 
2051.037 
2051.059 
2051.082 
2051.105 
2051.127 
2051.150 
2051.172 
2051.195 
2051.218 
2051.240 
2051.263 
2051.286 
2051.308 
2051.331 
2051.353 
2051.376 
2051.399 
2051.421 
2051.444 
2051.467 
2051.489 
2051.512 
2051.534 
2051.557 
2051.580 
2051.602 
2051.625 
2051.647 
2051.670 
2051.693 
2051.715 
2051.738 
2051.760 
2051.783 
2051.806 
2051.828 
2051.851 
2051.874 
2051.896 
2051.919 
2051.941 
2051.964 
2051.987 
2052.009 
2052.032 
2052.054 
2052.077 
2052.100 
2052.122 
2052.145 
2052.167 
2052.190 
2052.213 
2052.235 
2052.258 
2052.280 
2052.303 
2052.325 
2052.348 
2052.371 
2052.393 
2052.416 
2052.438 
2052.461 
2052.484 
2052.506 
2052.529 
2052.551 
2052.574 
2052.597 
2052.619 
2052.642 
2052.664 
2052.687 
2052.709 
2052.732 
2052.755 
2052.777 
2052.800 
2052.822 
2052.845 
2052.867 
2052.890 
2052.913 
2052.935 
2052.958 
2052.980 
2053.003 
2053.025 
2053.048 
2053.071 
2053.093 
2053.116 
2053.138 
2053.161 
2053.183 
2053.206 
2053.228 
2053.251 
2053.274 
2053.296 
2053.319 
2053.341 
2053.364 
2053.386 
2053.409 
2053.431 
2053.454 
2053.477 
2053.499 
2053.522 
2053.544 
2053.567 
2053.589 
2053.612 
2053.634 
2053.657 
2053.680 
2053.702 
2053.725 
2053.747 
2053.770 
2053.792 
2053.815 
2053.837 
2053.860 
2053.882 
2053.905 
2053.927 
2053.950 
2053.973 
2053.995 
2054.018 
2054.040 
2054.063 
2054.085 
2054.108 
2054.130 
2054.153 
2054.175 
2054.198 
2054.220 
2054.243 
2054.265 
2054.288 
2054.310 
2054.333 
2054.356 
2054.378 
2054.401 
2054.423 
2054.446 
2054.468 
2054.491 
2054.513 
2054.536 
2054.558 
2054.581 
2054.603 
2054.626 
2054.648 
2054.671 
2054.693 
2054.716 
2054.738 
2054.761 
2054.783 
2054.806 
2054.828 
2054.851 
2054.873 
2054.896 
2054.918 
2054.941 
2054.963 
2054.986 
2055.008 
2055.031 
2055.053 
2055.076 
2055.098 
2055.121 
2055.143 
2055.166 
2055.188 
2055.211 
2055.233 
2055.256 
2055.278 
2055.301 
2055.323 
2055.346 
2055.368 
2055.391 
2055.413 
2055.436 
2055.458 
2055.481 
2055.503 
2055.526 
2055.548 
2055.571 
2055.593 
2055.616 
2055.638 
2055.661 
2055.683 
2055.706 
2055.728 
2055.750 
2055.773 
2055.795 
2055.818 
2055.840 
2055.863 
2055.885 
2055.908 
2055.930 
2055.953 
2055.975 
2055.998 
2056.020 
2056.043 
2056.065 
2056.088 
2056.110 
2056.132 
2056.155 
2056.177 
2056.200 
2056.222 
2056.245 
2056.267 
2056.290 
2056.312 
2056.335 
2056.357 
2056.379 
2056.402 
2056.424 
2056.447 
2056.469 
2056.492 
2056.514 
2056.537 
2056.559 
2056.582 
2056.604 
2056.626 
2056.649 
2056.671 
2056.694 
2056.716 
2056.739 
2056.761 
2056.784 
2056.806 
2056.828 
2056.851 
2056.873 
2056.896 
2056.918 
2056.941 
2056.963 
2056.985 
2057.008 
2057.030 
2057.053 
2057.075 
2057.098 
2057.120 
2057.142 
2057.165 
2057.187 
2057.210 
2057.232 
2057.255 
2057.277 
2057.299 
2057.322 
2057.344 
2057.367 
2057.389 
2057.412 
2057.434 
2057.456 
2057.479 
2057.501 
2057.524 
2057.546 
2057.568 
2057.591 
2057.613 
2057.636 
2057.658 
2057.681 
2057.703 
2057.725 
2057.748 
2057.770 
2057.793 
2057.815 
2057.837 
2057.860 
2057.882 
2057.905 
2057.927 
2057.949 
2057.972 
2057.994 
2058.017 
2058.039 
2058.061 
2058.084 
2058.106 
2058.129 
2058.151 
2058.173 
2058.196 
2058.218 
2058.241 
2058.263 
2058.285 
2058.308 
2058.330 
2058.353 
2058.375 
2058.397 
2058.420 
2058.442 
2058.464 
2058.487 
2058.509 
2058.532 
2058.554 
2058.576 
2058.599 
2058.621 
2058.643 
2058.666 
2058.688 
2058.711 
2058.733 
2058.755 
2058.778 
2058.800 
2058.822 
2058.845 
2058.867 
2058.890 
2058.912 
2058.934 
2058.957 
2058.979 
2059.001 
2059.024 
2059.046 
2059.069 
2059.091 
2059.113 
2059.136 
2059.158 
2059.180 
2059.203 
2059.225 
2059.247 
2059.270 
2059.292 
2059.314 
2059.337 
2059.359 
2059.382 
2059.404 
2059.426 
2059.449 
2059.471 
2059.493 
2059.516 
2059.538 
2059.560 
2059.583 
2059.605 
2059.627 
2059.650 
2059.672 
2059.694 
2059.717 
2059.739 
2059.761 
2059.784 
2059.806 
2059.828 
2059.851 
2059.873 
2059.895 
2059.918 
2059.940 
2059.962 
2059.985 
2060.007 
2060.029 
2060.052 
2060.074 
2060.096 
2060.119 
2060.141 
2060.163 
2060.186 
2060.208 
2060.230 
2060.253 
2060.275 
2060.297 
2060.320 
2060.342 
2060.364 
2060.387 
2060.409 
2060.431 
2060.454 
2060.476 
2060.498 
2060.521 
2060.543 
2060.565 
2060.588 
2060.610 
2060.632 
2060.654 
2060.677 
2060.699 
2060.721 
2060.744 
2060.766 
2060.788 
2060.811 
2060.833 
2060.855 
2060.878 
2060.900 
2060.922 
2060.944 
2060.967 
2060.989 
2061.011 
2061.034 
2061.056 
2061.078 
2061.100 
2061.123 
2061.145 
2061.167 
2061.190 
2061.212 
2061.234 
2061.257 
2061.279 
2061.301 
2061.323 
2061.346 
2061.368 
2061.390 
2061.413 
2061.435 
2061.457 
2061.479 
2061.502 
2061.524 
2061.546 
2061.569 
2061.591 
2061.613 
2061.635 
2061.658 
2061.680 
2061.702 
2061.724 
2061.747 
2061.769 
2061.791 
2061.814 
2061.836 
2061.858 
2061.880 
2061.903 
2061.925 
2061.947 
2061.969 
2061.992 
2062.014 
2062.036 
2062.058 
2062.081 
2062.103 
2062.125 
2062.148 
2062.170 
2062.192 
2062.214 
2062.237 
2062.259 
2062.281 
2062.303 
2062.326 
2062.348 
2062.370 
2062.392 
2062.415 
2062.437 
2062.459 
2062.481 
2062.504 
2062.526 
2062.548 
2062.570 
2062.593 
2062.615 
2062.637 
2062.659 
2062.682 
2062.704 
2062.726 
2062.748 
2062.770 
2062.793 
2062.815 
2062.837 
2062.859 
2062.882 
2062.904 
2062.926 
2062.948 
2062.971 
2062.993 
2063.015 
2063.037 
2063.059 
2063.082 
2063.104 
2063.126 
2063.148 
2063.171 
2063.193 
2063.215 
2063.237 
2063.260 
2063.282 
2063.304 
2063.326 
2063.348 
2063.371 
2063.393 
2063.415 
2063.437 
2063.459 
2063.482 
2063.504 
2063.526 
2063.548 
2063.571 
2063.593 
2063.615 
2063.637 
2063.659 
2063.682 
2063.704 
2063.726 
2063.748 
2063.770 
2063.793 
2063.815 
2063.837 
2063.859 
2063.881 
2063.904 
2063.926 
2063.948 
2063.970 
2063.992 
2064.015 
2064.037 
2064.059 
2064.081 
2064.103 
2064.126 
2064.148 
2064.170 
2064.192 
2064.214 
2064.237 
2064.259 
2064.281 
2064.303 
2064.325 
2064.347 
2064.370 
2064.392 
2064.414 
2064.436 
2064.458 
2064.481 
2064.503 
2064.525 
2064.547 
2064.569 
2064.591 
2064.614 
2064.636 
2064.658 
2064.680 
2064.702 
2064.724 
2064.747 
2064.769 
2064.791 
2064.813 
2064.835 
2064.858 
2064.880 
2064.902 
2064.924 
2064.946 
2064.968 
2064.990 
2065.013 
2065.035 
2065.057 
2065.079 
2065.101 
2065.123 
2065.146 
2065.168 
2065.190 
2065.212 
2065.234 
2065.256 
2065.279 
2065.301 
2065.323 
2065.345 
2065.367 
2065.389 
2065.411 
2065.434 
2065.456 
2065.478 
2065.500 
2065.522 
2065.544 
2065.566 
2065.589 
2065.611 
2065.633 
2065.655 
2065.677 
2065.699 
2065.721 
2065.744 
2065.766 
2065.788 
2065.810 
2065.832 
2065.854 
2065.876 
2065.899 
2065.921 
2065.943 
2065.965 
2065.987 
2066.009 
2066.031 
2066.053 
2066.076 
2066.098 
2066.120 
2066.142 
2066.164 
2066.186 
2066.208 
2066.230 
2066.253 
2066.275 
2066.297 
2066.319 
2066.341 
2066.363 
2066.385 
2066.407 
2066.429 
2066.452 
2066.474 
2066.496 
2066.518 
2066.540 
2066.562 
2066.584 
2066.606 
2066.628 
2066.651 
2066.673 
2066.695 
2066.717 
2066.739 
2066.761 
2066.783 
2066.805 
2066.827 
2066.849 
2066.872 
2066.894 
2066.916 
2066.938 
2066.960 
2066.982 
2067.004 
2067.026 
2067.048 
2067.070 
2067.093 
2067.115 
2067.137 
2067.159 
2067.181 
2067.203 
2067.225 
2067.247 
2067.269 
2067.291 
2067.313 
2067.335 
2067.358 
2067.380 
2067.402 
2067.424 
2067.446 
2067.468 
2067.490 
2067.512 
2067.534 
2067.556 
2067.578 
2067.600 
2067.622 
2067.645 
2067.667 
2067.689 
2067.711 
2067.733 
2067.755 
2067.777 
2067.799 
2067.821 
2067.843 
2067.865 
2067.887 
2067.909 
2067.931 
2067.953 
2067.976 
2067.998 
2068.020 
2068.042 
2068.064 
2068.086 
2068.108 
2068.130 
2068.152 
2068.174 
2068.196 
2068.218 
2068.240 
2068.262 
2068.284 
2068.306 
2068.328 
2068.350 
2068.373 
2068.395 
2068.417 
2068.439 
2068.461 
2068.483 
2068.505 
2068.527 
2068.549 
2068.571 
2068.593 
2068.615 
2068.637 
2068.659 
2068.681 
2068.703 
2068.725 
2068.747 
2068.769 
2068.791 
2068.813 
2068.835 
2068.857 
2068.879 
2068.901 
2068.923 
2068.945 
2068.967 
2068.990 
2069.012 
2069.034 
2069.056 
2069.078 
2069.100 
2069.122 
2069.144 
2069.166 
2069.188 
2069.210 
2069.232 
2069.254 
2069.276 
2069.298 
2069.320 
2069.342 
2069.364 
2069.386 
2069.408 
2069.430 
2069.452 
2069.474 
2069.496 
2069.518 
2069.540 
2069.562 
2069.584 
2069.606 
2069.628 
2069.650 
2069.672 
2069.694 
2069.716 
2069.738 
2069.760 
2069.782 
2069.804 
2069.826 
2069.848 
2069.870 
2069.892 
2069.914 
2069.936 
2069.958 
2069.980 
2070.002 
2070.024 
2070.046 
2070.068 
2070.090 
2070.112 
2070.134 
2070.156 
2070.178 
2070.200 
2070.222 
2070.244 
2070.266 
2070.288 
2070.310 
2070.332 
2070.354 
2070.376 
2070.398 
2070.420 
2070.442 
2070.464 
2070.486 
2070.508 
2070.529 
2070.551 
2070.573 
2070.595 
2070.617 
2070.639 
2070.661 
2070.683 
2070.705 
2070.727 
2070.749 
2070.771 
2070.793 
2070.815 
2070.837 
2070.859 
2070.881 
2070.903 
2070.925 
2070.947 
2070.969 
2070.991 
2071.013 
2071.035 
2071.057 
2071.079 
2071.101 
2071.122 
2071.144 
2071.166 
2071.188 
2071.210 
2071.232 
2071.254 
2071.276 
2071.298 
2071.320 
2071.342 
2071.364 
2071.386 
2071.408 
2071.430 
2071.452 
2071.474 
2071.496 
2071.517 
2071.539 
2071.561 
2071.583 
2071.605 
2071.627 
2071.649 
2071.671 
2071.693 
2071.715 
2071.737 
2071.759 
2071.781 
2071.803 
2071.825 
2071.846 
2071.868 
2071.890 
2071.912 
2071.934 
2071.956 
2071.978 
2072.000 
2072.022 
2072.044 
2072.066 
2072.088 
2072.110 
2072.131 
2072.153 
2072.175 
2072.197 
2072.219 
2072.241 
2072.263 
2072.285 
2072.307 
2072.329 
2072.351 
2072.373 
2072.394 
2072.416 
2072.438 
2072.460 
2072.482 
2072.504 
2072.526 
2072.548 
2072.570 
2072.592 
2072.613 
2072.635 
2072.657 
2072.679 
2072.701 
2072.723 
2072.745 
2072.767 
2072.789 
2072.811 
2072.832 
2072.854 
2072.876 
2072.898 
2072.920 
2072.942 
2072.964 
2072.986 
2073.008 
2073.029 
2073.051 
2073.073 
2073.095 
2073.117 
2073.139 
2073.161 
2073.183 
2073.205 
2073.226 
2073.248 
2073.270 
2073.292 
2073.314 
2073.336 
2073.358 
2073.380 
2073.401 
2073.423 
2073.445 
2073.467 
2073.489 
2073.511 
2073.533 
2073.555 
2073.576 
2073.598 
2073.620 
2073.642 
2073.664 
2073.686 
2073.708 
2073.729 
2073.751 
2073.773 
2073.795 
2073.817 
2073.839 
2073.861 
2073.882 
2073.904 
2073.926 
2073.948 
2073.970 
2073.992 
2074.014 
2074.035 
2074.057 
2074.079 
2074.101 
2074.123 
2074.145 
2074.167 
2074.188 
2074.210 
2074.232 
2074.254 
2074.276 
2074.298 
2074.319 
2074.341 
2074.363 
2074.385 
2074.407 
2074.429 
2074.451 
2074.472 
2074.494 
2074.516 
2074.538 
2074.560 
2074.582 
2074.603 
2074.625 
2074.647 
2074.669 
2074.691 
2074.712 
2074.734 
2074.756 
2074.778 
2074.800 
2074.822 
2074.843 
2074.865 
2074.887 
2074.909 
2074.931 
2074.953 
2074.974 
2074.996 
2075.018 
2075.040 
2075.062 
2075.083 
2075.105 
2075.127 
2075.149 
2075.171 
2075.193 
2075.214 
2075.236 
2075.258 
2075.280 
2075.302 
2075.323 
2075.345 
2075.367 
2075.389 
2075.411 
2075.432 
2075.454 
2075.476 
2075.498 
2075.520 
2075.541 
2075.563 
2075.585 
2075.607 
2075.629 
2075.650 
2075.672 
2075.694 
2075.716 
2075.738 
2075.759 
2075.781 
2075.803 
2075.825 
2075.847 
2075.868 
2075.890 
2075.912 
2075.934 
2075.955 
2075.977 
2075.999 
2076.021 
2076.043 
2076.064 
2076.086 
2076.108 
2076.130 
2076.152 
2076.173 
2076.195 
2076.217 
2076.239 
2076.260 
2076.282 
2076.304 
2076.326 
2076.348 
2076.369 
2076.391 
2076.413 
2076.435 
2076.456 
2076.478 
2076.500 
2076.522 
2076.543 
2076.565 
2076.587 
2076.609 
2076.630 
2076.652 
2076.674 
2076.696 
2076.718 
2076.739 
2076.761 
2076.783 
2076.805 
2076.826 
2076.848 
2076.870 
2076.892 
2076.913 
2076.935 
2076.957 
2076.979 
2077.000 
2077.022 
2077.044 
2077.066 
2077.087 
2077.109 
2077.131 
2077.153 
2077.174 
2077.196 
2077.218 
2077.240 
2077.261 
2077.283 
2077.305 
2077.326 
2077.348 
2077.370 
2077.392 
2077.413 
2077.435 
2077.457 
2077.479 
2077.500 
2077.522 
2077.544 
2077.566 
2077.587 
2077.609 
2077.631 
2077.652 
2077.674 
2077.696 
2077.718 
2077.739 
2077.761 
2077.783 
2077.805 
2077.826 
2077.848 
2077.870 
2077.891 
2077.913 
2077.935 
2077.957 
2077.978 
2078.000 
2078.022 
2078.043 
2078.065 
2078.087 
2078.109 
2078.130 
2078.152 
2078.174 
2078.195 
2078.217 
2078.239 
2078.261 
2078.282 
2078.304 
2078.326 
2078.347 
2078.369 
2078.391 
2078.412 
2078.434 
2078.456 
2078.478 
2078.499 
2078.521 
2078.543 
2078.564 
2078.586 
2078.608 
2078.629 
2078.651 
2078.673 
2078.694 
2078.716 
2078.738 
2078.760 
2078.781 
2078.803 
2078.825 
2078.846 
2078.868 
2078.890 
2078.911 
2078.933 
2078.955 
2078.976 
2078.998 
2079.020 
2079.041 
2079.063 
2079.085 
2079.106 
2079.128 
2079.150 
2079.171 
2079.193 
2079.215 
2079.236 
2079.258 
2079.280 
2079.301 
2079.323 
2079.345 
2079.366 
2079.388 
2079.410 
2079.431 
2079.453 
2079.475 
2079.496 
2079.518 
2079.540 
2079.561 
2079.583 
2079.605 
2079.626 
2079.648 
2079.670 
2079.691 
2079.713 
2079.735 
2079.756 
2079.778 
2079.800 
2079.821 
2079.843 
2079.865 
2079.886 
2079.908 
2079.930 
2079.951 
2079.973 
2079.995 
2080.016 
2080.038 
2080.059 
2080.081 
2080.103 
2080.124 
2080.146 
2080.168 
2080.189 
2080.211 
2080.233 
2080.254 
2080.276 
2080.297 
2080.319 
2080.341 
2080.362 
2080.384 
2080.406 
2080.427 
2080.449 
2080.471 
2080.492 
2080.514 
2080.535 
2080.557 
2080.579 
2080.600 
2080.622 
2080.644 
2080.665 
2080.687 
2080.708 
2080.730 
2080.752 
2080.773 
2080.795 
2080.816 
2080.838 
2080.860 
2080.881 
2080.903 
2080.925 
2080.946 
2080.968 
2080.989 
2081.011 
2081.033 
2081.054 
2081.076 
2081.097 
2081.119 
2081.141 
2081.162 
2081.184 
2081.205 
2081.227 
2081.249 
2081.270 
2081.292 
2081.313 
2081.335 
2081.357 
2081.378 
2081.400 
2081.421 
2081.443 
2081.465 
2081.486 
2081.508 
2081.529 
2081.551 
2081.573 
2081.594 
2081.616 
2081.637 
2081.659 
2081.681 
2081.702 
2081.724 
2081.745 
2081.767 
2081.788 
2081.810 
2081.832 
2081.853 
2081.875 
2081.896 
2081.918 
2081.939 
2081.961 
2081.983 
2082.004 
2082.026 
2082.047 
2082.069 
2082.091 
2082.112 
2082.134 
2082.155 
2082.177 
2082.198 
2082.220 
2082.241 
2082.263 
2082.285 
2082.306 
2082.328 
2082.349 
2082.371 
2082.392 
2082.414 
2082.436 
2082.457 
2082.479 
2082.500 
2082.522 
2082.543 
2082.565 
2082.586 
2082.608 
2082.630 
2082.651 
2082.673 
2082.694 
2082.716 
2082.737 
2082.759 
2082.780 
2082.802 
2082.824 
2082.845 
2082.867 
2082.888 
2082.910 
2082.931 
2082.953 
2082.974 
2082.996 
2083.017 
2083.039 
2083.060 
2083.082 
2083.104 
2083.125 
2083.147 
2083.168 
2083.190 
2083.211 
2083.233 
2083.254 
2083.276 
2083.297 
2083.319 
2083.340 
2083.362 
2083.383 
2083.405 
2083.426 
2083.448 
2083.470 
2083.491 
2083.513 
2083.534 
2083.556 
2083.577 
2083.599 
2083.620 
2083.642 
2083.663 
2083.685 
2083.706 
2083.728 
2083.749 
2083.771 
2083.792 
2083.814 
2083.835 
2083.857 
2083.878 
2083.900 
2083.921 
2083.943 
2083.964 
2083.986 
2084.007 
2084.029 
2084.050 
2084.072 
2084.093 
2084.115 
2084.136 
2084.158 
2084.179 
2084.201 
2084.222 
2084.244 
2084.265 
2084.287 
2084.308 
2084.330 
2084.351 
2084.373 
2084.394 
2084.416 
2084.437 
2084.459 
2084.480 
2084.502 
2084.523 
2084.545 
2084.566 
2084.588 
2084.609 
2084.631 
2084.652 
2084.674 
2084.695 
2084.717 
2084.738 
2084.760 
2084.781 
2084.803 
2084.824 
2084.845 
2084.867 
2084.888 
2084.910 
2084.931 
2084.953 
2084.974 
2084.996 
2085.017 
2085.039 
2085.060 
2085.082 
2085.103 
2085.125 
2085.146 
2085.168 
2085.189 
2085.210 
2085.232 
2085.253 
2085.275 
2085.296 
2085.318 
2085.339 
2085.361 
2085.382 
2085.404 
2085.425 
2085.446 
2085.468 
2085.489 
2085.511 
2085.532 
2085.554 
2085.575 
2085.597 
2085.618 
2085.640 
2085.661 
2085.682 
2085.704 
2085.725 
2085.747 
2085.768 
2085.790 
2085.811 
2085.833 
2085.854 
2085.875 
2085.897 
2085.918 
2085.940 
2085.961 
2085.983 
2086.004 
2086.025 
2086.047 
2086.068 
2086.090 
2086.111 
2086.133 
2086.154 
2086.175 
2086.197 
2086.218 
2086.240 
2086.261 
2086.283 
2086.304 
2086.325 
2086.347 
2086.368 
2086.390 
2086.411 
2086.433 
2086.454 
2086.475 
2086.497 
2086.518 
2086.540 
2086.561 
2086.582 
2086.604 
2086.625 
2086.647 
2086.668 
2086.690 
2086.711 
2086.732 
2086.754 
2086.775 
2086.797 
2086.818 
2086.839 
2086.861 
2086.882 
2086.904 
2086.925 
2086.946 
2086.968 
2086.989 
2087.011 
2087.032 
2087.053 
2087.075 
2087.096 
2087.118 
2087.139 
2087.160 
2087.182 
2087.203 
2087.225 
2087.246 
2087.267 
2087.289 
2087.310 
2087.331 
2087.353 
2087.374 
2087.396 
2087.417 
2087.438 
2087.460 
2087.481 
2087.503 
2087.524 
2087.545 
2087.567 
2087.588 
2087.609 
2087.631 
2087.652 
2087.674 
2087.695 
2087.716 
2087.738 
2087.759 
2087.780 
2087.802 
2087.823 
2087.845 
2087.866 
2087.887 
2087.909 
2087.930 
2087.951 
2087.973 
2087.994 
2088.015 
2088.037 
2088.058 
2088.080 
2088.101 
2088.122 
2088.144 
2088.165 
2088.186 
2088.208 
2088.229 
2088.250 
2088.272 
2088.293 
2088.314 
2088.336 
2088.357 
2088.379 
2088.400 
2088.421 
2088.443 
2088.464 
2088.485 
2088.507 
2088.528 
2088.549 
2088.571 
2088.592 
2088.613 
2088.635 
2088.656 
2088.677 
2088.699 
2088.720 
2088.741 
2088.763 
2088.784 
2088.805 
2088.827 
2088.848 
2088.869 
2088.891 
2088.912 
2088.933 
2088.955 
2088.976 
2088.997 
2089.019 
2089.040 
2089.061 
2089.083 
2089.104 
2089.125 
2089.147 
2089.168 
2089.189 
2089.211 
2089.232 
2089.253 
2089.275 
2089.296 
2089.317 
2089.339 
2089.360 
2089.381 
2089.402 
2089.424 
2089.445 
2089.466 
2089.488 
2089.509 
2089.530 
2089.552 
2089.573 
2089.594 
2089.616 
2089.637 
2089.658 
2089.679 
2089.701 
2089.722 
2089.743 
2089.765 
2089.786 
2089.807 
2089.829 
2089.850 
2089.871 
2089.892 
2089.914 
2089.935 
2089.956 
2089.978 
2089.999 
2090.020 
2090.042 
2090.063 
2090.084 
2090.105 
2090.127 
2090.148 
2090.169 
2090.191 
2090.212 
2090.233 
2090.254 
2090.276 
2090.297 
2090.318 
2090.340 
2090.361 
2090.382 
2090.403 
2090.425 
2090.446 
2090.467 
2090.489 
2090.510 
2090.531 
2090.552 
2090.574 
2090.595 
2090.616 
2090.637 
2090.659 
2090.680 
2090.701 
2090.722 
2090.744 
2090.765 
2090.786 
2090.808 
2090.829 
2090.850 
2090.871 
2090.893 
2090.914 
2090.935 
2090.956 
2090.978 
2090.999 
2091.020 
2091.041 
2091.063 
2091.084 
2091.105 
2091.126 
2091.148 
2091.169 
2091.190 
2091.211 
2091.233 
2091.254 
2091.275 
2091.296 
2091.318 
2091.339 
2091.360 
2091.381 
2091.403 
2091.424 
2091.445 
2091.466 
2091.488 
2091.509 
2091.530 
2091.551 
2091.573 
2091.594 
2091.615 
2091.636 
2091.658 
2091.679 
2091.700 
2091.721 
2091.742 
2091.764 
2091.785 
2091.806 
2091.827 
2091.849 
2091.870 
2091.891 
2091.912 
2091.933 
2091.955 
2091.976 
2091.997 
2092.018 
2092.040 
2092.061 
2092.082 
2092.103 
2092.124 
2092.146 
2092.167 
2092.188 
2092.209 
2092.231 
2092.252 
2092.273 
2092.294 
2092.315 
2092.337 
2092.358 
2092.379 
2092.400 
2092.421 
2092.443 
2092.464 
2092.485 
2092.506 
2092.527 
2092.549 
2092.570 
2092.591 
2092.612 
2092.633 
2092.655 
2092.676 
2092.697 
2092.718 
2092.739 
2092.761 
2092.782 
2092.803 
2092.824 
2092.845 
2092.867 
2092.888 
2092.909 
2092.930 
2092.951 
2092.973 
2092.994 
2093.015 
2093.036 
2093.057 
2093.078 
2093.100 
2093.121 
2093.142 
2093.163 
2093.184 
2093.206 
2093.227 
2093.248 
2093.269 
2093.290 
2093.311 
2093.333 
2093.354 
2093.375 
2093.396 
2093.417 
2093.438 
2093.460 
2093.481 
2093.502 
2093.523 
2093.544 
2093.565 
2093.587 
2093.608 
2093.629 
2093.650 
2093.671 
2093.692 
2093.714 
2093.735 
2093.756 
2093.777 
2093.798 
2093.819 
2093.841 
2093.862 
2093.883 
2093.904 
2093.925 
2093.946 
2093.968 
2093.989 
2094.010 
2094.031 
2094.052 
2094.073 
2094.094 
2094.116 
2094.137 
2094.158 
2094.179 
2094.200 
2094.221 
2094.242 
2094.264 
2094.285 
2094.306 
2094.327 
2094.348 
2094.369 
2094.390 
2094.412 
2094.433 
2094.454 
2094.475 
2094.496 
2094.517 
2094.538 
2094.559 
2094.581 
2094.602 
2094.623 
2094.644 
2094.665 
2094.686 
2094.707 
2094.728 
2094.750 
2094.771 
2094.792 
2094.813 
2094.834 
2094.855 
2094.876 
2094.897 
2094.919 
2094.940 
2094.961 
2094.982 
2095.003 
2095.024 
2095.045 
2095.066 
2095.087 
2095.109 
2095.130 
2095.151 
2095.172 
2095.193 
2095.214 
2095.235 
2095.256 
2095.277 
2095.299 
2095.320 
2095.341 
2095.362 
2095.383 
2095.404 
2095.425 
2095.446 
2095.467 
2095.488 
2095.510 
2095.531 
2095.552 
2095.573 
2095.594 
2095.615 
2095.636 
2095.657 
2095.678 
2095.699 
2095.720 
2095.742 
2095.763 
2095.784 
2095.805 
2095.826 
2095.847 
2095.868 
2095.889 
2095.910 
2095.931 
2095.952 
2095.973 
2095.995 
2096.016 
2096.037 
2096.058 
2096.079 
2096.100 
2096.121 
2096.142 
2096.163 
2096.184 
2096.205 
2096.226 
2096.247 
2096.269 
2096.290 
2096.311 
2096.332 
2096.353 
2096.374 
2096.395 
2096.416 
2096.437 
2096.458 
2096.479 
2096.500 
2096.521 
2096.542 
2096.563 
2096.584 
2096.606 
2096.627 
2096.648 
2096.669 
2096.690 
2096.711 
2096.732 
2096.753 
2096.774 
2096.795 
2096.816 
2096.837 
2096.858 
2096.879 
2096.900 
2096.921 
2096.942 
2096.963 
2096.984 
2097.005 
2097.027 
2097.048 
2097.069 
2097.090 
2097.111 
2097.132 
2097.153 
2097.174 
2097.195 
2097.216 
2097.237 
2097.258 
2097.279 
2097.300 
2097.321 
2097.342 
2097.363 
2097.384 
2097.405 
2097.426 
2097.447 
2097.468 
2097.489 
2097.510 
2097.531 
2097.552 
2097.573 
2097.594 
2097.615 
2097.636 
2097.657 
2097.678 
2097.699 
2097.720 
2097.742 
2097.763 
2097.784 
2097.805 
2097.826 
2097.847 
2097.868 
2097.889 
2097.910 
2097.931 
2097.952 
2097.973 
2097.994 
2098.015 
2098.036 
2098.057 
2098.078 
2098.099 
2098.120 
2098.141 
2098.162 
2098.183 
2098.204 
2098.225 
2098.246 
2098.267 
2098.288 
2098.309 
2098.330 
2098.351 
2098.372 
2098.393 
2098.414 
2098.435 
2098.456 
2098.477 
2098.498 
2098.519 
2098.540 
2098.561 
2098.582 
2098.603 
2098.624 
2098.644 
2098.665 
2098.686 
2098.707 
2098.728 
2098.749 
2098.770 
2098.791 
2098.812 
2098.833 
2098.854 
2098.875 
2098.896 
2098.917 
2098.938 
2098.959 
2098.980 
2099.001 
2099.022 
2099.043 
2099.064 
2099.085 
2099.106 
2099.127 
2099.148 
2099.169 
2099.190 
2099.211 
2099.232 
2099.253 
2099.274 
2099.295 
2099.316 
2099.337 
2099.358 
2099.378 
2099.399 
2099.420 
2099.441 
2099.462 
2099.483 
2099.504 
2099.525 
2099.546 
2099.567 
2099.588 
2099.609 
2099.630 
2099.651 
2099.672 
2099.693 
2099.714 
2099.735 
2099.756 
2099.777 
2099.797 
2099.818 
2099.839 
2099.860 
2099.881 
2099.902 
2099.923 
2099.944 
2099.965 
2099.986 
2100.007 
2100.028 
2100.049 
2100.070 
2100.091 
2100.112 
2100.132 
2100.153 
2100.174 
2100.195 
2100.216 
2100.237 
2100.258 
2100.279 
2100.300 
2100.321 
2100.342 
2100.363 
2100.384 
2100.404 
2100.425 
2100.446 
2100.467 
2100.488 
2100.509 
2100.530 
2100.551 
2100.572 
2100.593 
2100.614 
2100.635 
2100.655 
2100.676 
2100.697 
2100.718 
2100.739 
2100.760 
2100.781 
2100.802 
2100.823 
2100.844 
2100.865 
2100.885 
2100.906 
2100.927 
2100.948 
2100.969 
2100.990 
2101.011 
2101.032 
2101.053 
2101.074 
2101.094 
2101.115 
2101.136 
2101.157 
2101.178 
2101.199 
2101.220 
2101.241 
2101.262 
2101.282 
2101.303 
2101.324 
2101.345 
2101.366 
2101.387 
2101.408 
2101.429 
2101.450 
2101.470 
2101.491 
2101.512 
2101.533 
2101.554 
2101.575 
2101.596 
2101.617 
2101.637 
2101.658 
2101.679 
2101.700 
2101.721 
2101.742 
2101.763 
2101.784 
2101.804 
2101.825 
2101.846 
2101.867 
2101.888 
2101.909 
2101.930 
2101.950 
2101.971 
2101.992 
2102.013 
2102.034 
2102.055 
2102.076 
2102.097 
2102.117 
2102.138 
2102.159 
2102.180 
2102.201 
2102.222 
2102.243 
2102.263 
2102.284 
2102.305 
2102.326 
2102.347 
2102.368 
2102.388 
2102.409 
2102.430 
2102.451 
2102.472 
2102.493 
2102.514 
2102.534 
2102.555 
2102.576 
2102.597 
2102.618 
2102.639 
2102.659 
2102.680 
2102.701 
2102.722 
2102.743 
2102.764 
2102.784 
2102.805 
2102.826 
2102.847 
2102.868 
2102.889 
2102.909 
2102.930 
2102.951 
2102.972 
2102.993 
2103.014 
2103.034 
2103.055 
2103.076 
2103.097 
2103.118 
2103.139 
2103.159 
2103.180 
2103.201 
2103.222 
2103.243 
2103.263 
2103.284 
2103.305 
2103.326 
2103.347 
2103.368 
2103.388 
2103.409 
2103.430 
2103.451 
2103.472 
2103.492 
2103.513 
2103.534 
2103.555 
2103.576 
2103.596 
2103.617 
2103.638 
2103.659 
2103.680 
2103.700 
2103.721 
2103.742 
2103.763 
2103.784 
2103.804 
2103.825 
2103.846 
2103.867 
2103.888 
2103.908 
2103.929 
2103.950 
2103.971 
2103.992 
2104.012 
2104.033 
2104.054 
2104.075 
2104.095 
2104.116 
2104.137 
2104.158 
2104.179 
2104.199 
2104.220 
2104.241 
2104.262 
2104.283 
2104.303 
2104.324 
2104.345 
2104.366 
2104.386 
2104.407 
2104.428 
2104.449 
2104.470 
2104.490 
2104.511 
2104.532 
2104.553 
2104.573 
2104.594 
2104.615 
2104.636 
2104.656 
2104.677 
2104.698 
2104.719 
2104.740 
2104.760 
2104.781 
2104.802 
2104.823 
2104.843 
2104.864 
2104.885 
2104.906 
2104.926 
2104.947 
2104.968 
2104.989 
2105.009 
2105.030 
2105.051 
2105.072 
2105.092 
2105.113 
2105.134 
2105.155 
2105.175 
2105.196 
2105.217 
2105.238 
2105.258 
2105.279 
2105.300 
2105.321 
2105.341 
2105.362 
2105.383 
2105.404 
2105.424 
2105.445 
2105.466 
2105.486 
2105.507 
2105.528 
2105.549 
2105.569 
2105.590 
2105.611 
2105.632 
2105.652 
2105.673 
2105.694 
2105.715 
2105.735 
2105.756 
2105.777 
2105.797 
2105.818 
2105.839 
2105.860 
2105.880 
2105.901 
2105.922 
2105.942 
2105.963 
2105.984 
2106.005 
2106.025 
2106.046 
2106.067 
2106.088 
2106.108 
2106.129 
2106.150 
2106.170 
2106.191 
2106.212 
2106.232 
2106.253 
2106.274 
2106.295 
2106.315 
2106.336 
2106.357 
2106.377 
2106.398 
2106.419 
2106.440 
2106.460 
2106.481 
2106.502 
2106.522 
2106.543 
2106.564 
2106.584 
2106.605 
2106.626 
2106.647 
2106.667 
2106.688 
2106.709 
2106.729 
2106.750 
2106.771 
2106.791 
2106.812 
2106.833 
2106.853 
2106.874 
2106.895 
2106.915 
2106.936 
2106.957 
2106.978 
2106.998 
2107.019 
2107.040 
2107.060 
2107.081 
2107.102 
2107.122 
2107.143 
2107.164 
2107.184 
2107.205 
2107.226 
2107.246 
2107.267 
2107.288 
2107.308 
2107.329 
2107.350 
2107.370 
2107.391 
2107.412 
2107.432 
2107.453 
2107.474 
2107.494 
2107.515 
2107.536 
2107.556 
2107.577 
2107.598 
2107.618 
2107.639 
2107.660 
2107.680 
2107.701 
2107.722 
2107.742 
2107.763 
2107.784 
2107.804 
2107.825 
2107.845 
2107.866 
2107.887 
2107.907 
2107.928 
2107.949 
2107.969 
2107.990 
2108.011 
2108.031 
2108.052 
2108.073 
2108.093 
2108.114 
2108.134 
2108.155 
2108.176 
2108.196 
2108.217 
2108.238 
2108.258 
2108.279 
2108.300 
2108.320 
2108.341 
2108.361 
2108.382 
2108.403 
2108.423 
2108.444 
2108.465 
2108.485 
2108.506 
2108.526 
2108.547 
2108.568 
2108.588 
2108.609 
2108.630 
2108.650 
2108.671 
2108.691 
2108.712 
2108.733 
2108.753 
2108.774 
2108.795 
2108.815 
2108.836 
2108.856 
2108.877 
2108.898 
2108.918 
2108.939 
2108.959 
2108.980 
2109.001 
2109.021 
2109.042 
2109.062 
2109.083 
2109.104 
2109.124 
2109.145 
2109.165 
2109.186 
2109.207 
2109.227 
2109.248 
2109.268 
2109.289 
2109.310 
2109.330 
2109.351 
2109.371 
2109.392 
2109.413 
2109.433 
2109.454 
2109.474 
2109.495 
2109.516 
2109.536 
2109.557 
2109.577 
2109.598 
2109.619 
2109.639 
2109.660 
2109.680 
2109.701 
2109.721 
2109.742 
2109.763 
2109.783 
2109.804 
2109.824 
2109.845 
2109.866 
2109.886 
2109.907 
2109.927 
2109.948 
2109.968 
2109.989 
2110.010 
2110.030 
2110.051 
2110.071 
2110.092 
2110.112 
2110.133 
2110.153 
2110.174 
2110.195 
2110.215 
2110.236 
2110.256 
2110.277 
2110.297 
2110.318 
2110.339 
2110.359 
2110.380 
2110.400 
2110.421 
2110.441 
2110.462 
2110.482 
2110.503 
2110.524 
2110.544 
2110.565 
2110.585 
2110.606 
2110.626 
2110.647 
2110.667 
2110.688 
2110.708 
2110.729 
2110.750 
2110.770 
2110.791 
2110.811 
2110.832 
2110.852 
2110.873 
2110.893 
2110.914 
2110.934 
2110.955 
2110.975 
2110.996 
2111.017 
2111.037 
2111.058 
2111.078 
2111.099 
2111.119 
2111.140 
2111.160 
2111.181 
2111.201 
2111.222 
2111.242 
2111.263 
2111.283 
2111.304 
2111.324 
2111.345 
2111.366 
2111.386 
2111.407 
2111.427 
2111.448 
2111.468 
2111.489 
2111.509 
2111.530 
2111.550 
2111.571 
2111.591 
2111.612 
2111.632 
2111.653 
2111.673 
2111.694 
2111.714 
2111.735 
2111.755 
2111.776 
2111.796 
2111.817 
2111.837 
2111.858 
2111.878 
2111.899 
2111.919 
2111.940 
2111.960 
2111.981 
2112.001 
2112.022 
2112.042 
2112.063 
2112.083 
2112.104 
2112.124 
2112.145 
2112.165 
2112.186 
2112.206 
2112.227 
2112.247 
2112.268 
2112.288 
2112.309 
2112.329 
2112.350 
2112.370 
2112.391 
2112.411 
2112.432 
2112.452 
2112.473 
2112.493 
2112.513 
2112.534 
2112.554 
2112.575 
2112.595 
2112.616 
2112.636 
2112.657 
2112.677 
2112.698 
2112.718 
2112.739 
2112.759 
2112.780 
2112.800 
2112.821 
2112.841 
2112.861 
2112.882 
2112.902 
2112.923 
2112.943 
2112.964 
2112.984 
2113.005 
2113.025 
2113.046 
2113.066 
2113.087 
2113.107 
2113.127 
2113.148 
2113.168 
2113.189 
2113.209 
2113.230 
2113.250 
2113.271 
2113.291 
2113.312 
2113.332 
2113.352 
2113.373 
2113.393 
2113.414 
2113.434 
2113.455 
2113.475 
2113.496 
2113.516 
2113.536 
2113.557 
2113.577 
2113.598 
2113.618 
2113.639 
2113.659 
2113.680 
2113.700 
2113.720 
2113.741 
2113.761 
2113.782 
2113.802 
2113.823 
2113.843 
2113.863 
2113.884 
2113.904 
2113.925 
2113.945 
2113.966 
2113.986 
2114.006 
2114.027 
2114.047 
2114.068 
2114.088 
2114.108 
2114.129 
2114.149 
2114.170 
2114.190 
2114.211 
2114.231 
2114.251 
2114.272 
2114.292 
2114.313 
2114.333 
2114.353 
2114.374 
2114.394 
2114.415 
2114.435 
2114.455 
2114.476 
2114.496 
2114.517 
2114.537 
2114.558 
2114.578 
2114.598 
2114.619 
2114.639 
2114.660 
2114.680 
2114.700 
2114.721 
2114.741 
2114.761 
2114.782 
2114.802 
2114.823 
2114.843 
2114.863 
2114.884 
2114.904 
2114.925 
2114.945 
2114.965 
2114.986 
2115.006 
2115.027 
2115.047 
2115.067 
2115.088 
2115.108 
2115.128 
2115.149 
2115.169 
2115.190 
2115.210 
2115.230 
2115.251 
2115.271 
2115.292 
2115.312 
2115.332 
2115.353 
2115.373 
2115.393 
2115.414 
2115.434 
2115.454 
2115.475 
2115.495 
2115.516 
2115.536 
2115.556 
2115.577 
2115.597 
2115.617 
2115.638 
2115.658 
2115.679 
2115.699 
2115.719 
2115.740 
2115.760 
2115.780 
2115.801 
2115.821 
2115.841 
2115.862 
2115.882 
2115.902 
2115.923 
2115.943 
2115.963 
2115.984 
2116.004 
2116.025 
2116.045 
2116.065 
2116.086 
2116.106 
2116.126 
2116.147 
2116.167 
2116.187 
2116.208 
2116.228 
2116.248 
2116.269 
2116.289 
2116.309 
2116.330 
2116.350 
2116.370 
2116.391 
2116.411 
2116.431 
2116.452 
2116.472 
2116.492 
2116.513 
2116.533 
2116.553 
2116.574 
2116.594 
2116.614 
2116.635 
2116.655 
2116.675 
2116.696 
2116.716 
2116.736 
2116.757 
2116.777 
2116.797 
2116.818 
2116.838 
2116.858 
2116.878 
2116.899 
2116.919 
2116.939 
2116.960 
2116.980 
2117.000 
2117.021 
2117.041 
2117.061 
2117.082 
2117.102 
2117.122 
2117.143 
2117.163 
2117.183 
2117.203 
2117.224 
2117.244 
2117.264 
2117.285 
2117.305 
2117.325 
2117.346 
2117.366 
2117.386 
2117.406 
2117.427 
2117.447 
2117.467 
2117.488 
2117.508 
2117.528 
2117.549 
2117.569 
2117.589 
2117.609 
2117.630 
2117.650 
2117.670 
2117.691 
2117.711 
2117.731 
2117.751 
2117.772 
2117.792 
2117.812 
2117.833 
2117.853 
2117.873 
2117.893 
2117.914 
2117.934 
2117.954 
2117.974 
2117.995 
2118.015 
2118.035 
2118.056 
2118.076 
2118.096 
2118.116 
2118.137 
2118.157 
2118.177 
2118.197 
2118.218 
2118.238 
2118.258 
2118.279 
2118.299 
2118.319 
2118.339 
2118.360 
2118.380 
2118.400 
2118.420 
2118.441 
2118.461 
2118.481 
2118.501 
2118.522 
2118.542 
2118.562 
2118.582 
2118.603 
2118.623 
2118.643 
2118.663 
2118.684 
2118.704 
2118.724 
2118.744 
2118.765 
2118.785 
2118.805 
2118.825 
2118.846 
2118.866 
2118.886 
2118.906 
2118.927 
2118.947 
2118.967 
2118.987 
2119.008 
2119.028 
2119.048 
2119.068 
2119.088 
2119.109 
2119.129 
2119.149 
2119.169 
2119.190 
2119.210 
2119.230 
2119.250 
2119.271 
2119.291 
2119.311 
2119.331 
2119.351 
2119.372 
2119.392 
2119.412 
2119.432 
2119.453 
2119.473 
2119.493 
2119.513 
2119.533 
2119.554 
2119.574 
2119.594 
2119.614 
2119.635 
2119.655 
2119.675 
2119.695 
2119.715 
2119.736 
2119.756 
2119.776 
2119.796 
2119.816 
2119.837 
2119.857 
2119.877 
2119.897 
2119.917 
2119.938 
2119.958 
2119.978 
2119.998 
