# Wavelength table for wfpc
1000.00 
1002.26 
1004.53 
1006.81 
1009.09 
1011.37 
1013.66 
1015.95 
1018.25 
1020.56 
1022.87 
1025.18 
1027.50 
1029.83 
1032.16 
1034.50 
1036.84 
1039.19 
1041.54 
1043.90 
1046.26 
1048.63 
1051.00 
1053.38 
1055.76 
1058.15 
1060.55 
1062.95 
1065.36 
1067.77 
1070.19 
1072.61 
1075.04 
1077.47 
1079.91 
1082.35 
1084.80 
1087.26 
1089.72 
1092.19 
1094.66 
1097.14 
1099.62 
1102.11 
1104.60 
1107.10 
1109.61 
1112.12 
1114.64 
1117.16 
1119.69 
1122.23 
1124.77 
1127.31 
1129.86 
1132.42 
1134.99 
1137.55 
1140.13 
1142.71 
1145.30 
1147.89 
1150.49 
1153.09 
1155.70 
1158.32 
1160.94 
1163.57 
1166.20 
1168.84 
1171.49 
1174.14 
1176.80 
1179.46 
1182.13 
1184.81 
1187.49 
1190.18 
1192.87 
1195.57 
1198.28 
1200.99 
1203.71 
1206.43 
1209.16 
1211.90 
1214.64 
1217.39 
1220.15 
1222.91 
1225.68 
1228.45 
1231.23 
1234.02 
1236.82 
1239.62 
1242.42 
1245.23 
1248.05 
1250.88 
1253.71 
1256.55 
1259.39 
1262.24 
1265.10 
1267.96 
1270.83 
1273.71 
1276.59 
1279.48 
1282.38 
1285.28 
1288.19 
1291.11 
1294.03 
1296.96 
1299.89 
1302.84 
1305.79 
1308.74 
1311.70 
1314.67 
1317.65 
1320.63 
1323.62 
1326.62 
1329.62 
1332.63 
1335.65 
1338.67 
1341.70 
1344.74 
1347.78 
1350.83 
1353.89 
1356.96 
1360.03 
1363.11 
1366.19 
1369.28 
1372.38 
1375.49 
1378.60 
1381.72 
1384.85 
1387.99 
1391.13 
1394.28 
1397.43 
1400.60 
1403.77 
1406.94 
1410.13 
1413.32 
1416.52 
1419.73 
1422.94 
1426.16 
1429.39 
1432.63 
1435.87 
1439.12 
1442.38 
1445.64 
1448.91 
1452.19 
1455.48 
1458.78 
1462.08 
1465.39 
1468.70 
1472.03 
1475.36 
1478.70 
1482.05 
1485.40 
1488.76 
1492.13 
1495.51 
1498.90 
1502.29 
1505.69 
1509.10 
1512.52 
1515.94 
1519.37 
1522.81 
1526.26 
1529.71 
1533.17 
1536.65 
1540.12 
1543.61 
1547.10 
1550.61 
1554.12 
1557.63 
1561.16 
1564.69 
1568.24 
1571.79 
1575.34 
1578.91 
1582.48 
1586.07 
1589.66 
1593.25 
1596.86 
1600.48 
1604.10 
1607.73 
1611.37 
1615.02 
1618.67 
1622.34 
1626.01 
1629.69 
1633.38 
1637.08 
1640.78 
1644.50 
1648.22 
1651.95 
1655.69 
1659.44 
1663.19 
1666.96 
1670.73 
1674.51 
1678.30 
1682.10 
1685.91 
1689.73 
1693.55 
1697.38 
1701.23 
1705.08 
1708.94 
1712.81 
1716.68 
1720.57 
1724.46 
1728.37 
1732.28 
1736.20 
1740.13 
1744.07 
1748.02 
1751.97 
1755.94 
1759.91 
1763.90 
1767.89 
1771.89 
1775.90 
1779.92 
1783.95 
1787.99 
1792.04 
1796.10 
1800.16 
1804.24 
1808.32 
1812.41 
1816.52 
1820.63 
1824.75 
1828.88 
1833.02 
1837.17 
1841.33 
1845.50 
1849.67 
1853.86 
1858.06 
1862.26 
1866.48 
1870.70 
1874.94 
1879.18 
1883.43 
1887.70 
1891.97 
1896.25 
1900.55 
1904.85 
1909.16 
1913.48 
1917.81 
1922.15 
1926.51 
1930.87 
1935.24 
1939.62 
1944.01 
1948.41 
1952.82 
1957.24 
1961.67 
1966.11 
1970.56 
1975.02 
1979.49 
1983.97 
1988.46 
1992.97 
1997.48 
2002.00 
2006.53 
2011.07 
2015.62 
2020.19 
2024.76 
2029.34 
2033.94 
2038.54 
2043.16 
2047.78 
2052.42 
2057.06 
2061.72 
2066.39 
2071.06 
2075.75 
2080.45 
2085.16 
2089.88 
2094.61 
2099.35 
2104.10 
2108.87 
2113.64 
2118.42 
2123.22 
2128.03 
2132.84 
2137.67 
2142.51 
2147.36 
2152.22 
2157.09 
2161.97 
2166.87 
2171.77 
2176.69 
2181.62 
2186.56 
2191.50 
2196.47 
2201.44 
2206.42 
2211.42 
2216.42 
2221.44 
2226.47 
2231.51 
2236.56 
2241.62 
2246.69 
2251.78 
2256.88 
2261.99 
2267.11 
2272.24 
2277.38 
2282.54 
2287.70 
2292.88 
2298.07 
2303.27 
2308.49 
2313.71 
2318.95 
2324.20 
2329.46 
2334.73 
2340.02 
2345.32 
2350.63 
2355.95 
2361.28 
2366.62 
2371.98 
2377.35 
2382.73 
2388.13 
2393.53 
2398.95 
2404.38 
2409.82 
2415.28 
2420.74 
2426.22 
2431.72 
2437.22 
2442.74 
2448.27 
2453.81 
2459.36 
2464.93 
2470.51 
2476.10 
2481.71 
2487.32 
2492.96 
2498.60 
2504.25 
2509.92 
2515.60 
2521.30 
2527.01 
2532.73 
2538.46 
2544.21 
2549.96 
2555.74 
2561.52 
2567.32 
2573.13 
2578.96 
2584.79 
2590.65 
2596.51 
2602.39 
2608.28 
2614.18 
2620.10 
2626.03 
2631.97 
2637.93 
2643.90 
2649.89 
2655.89 
2661.90 
2667.92 
2673.96 
2680.02 
2686.08 
2692.16 
2698.26 
2704.36 
2710.49 
2716.62 
2722.77 
2728.93 
2735.11 
2741.30 
2747.51 
2753.73 
2759.96 
2766.21 
2772.47 
2778.75 
2785.04 
2791.34 
2797.66 
2803.99 
2810.34 
2816.70 
2823.08 
2829.47 
2835.87 
2842.29 
2848.72 
2855.17 
2861.64 
2868.11 
2874.61 
2881.11 
2887.64 
2894.17 
2900.72 
2907.29 
2913.87 
2920.47 
2927.08 
2933.70 
2940.34 
2947.00 
2953.67 
2960.36 
2967.06 
2973.77 
2980.50 
2987.25 
2994.01 
3000.79 
3007.58 
3014.39 
3021.22 
3028.05 
3034.91 
3041.78 
3048.66 
3055.56 
3062.48 
3069.41 
3076.36 
3083.33 
3090.30 
3097.30 
3104.31 
3111.34 
3118.38 
3125.44 
3132.51 
3139.61 
3146.71 
3153.84 
3160.97 
3168.13 
3175.30 
3182.49 
3189.69 
3196.91 
3204.15 
3211.40 
3218.67 
3225.96 
3233.26 
3240.58 
3247.91 
3255.27 
3262.64 
3270.02 
3277.42 
3284.84 
3292.28 
3299.73 
3307.20 
3314.69 
3322.19 
3329.71 
3337.25 
3344.80 
3352.37 
3359.96 
3367.57 
3375.19 
3382.83 
3390.49 
3398.16 
3405.85 
3413.56 
3421.29 
3429.03 
3436.80 
3444.58 
3452.37 
3460.19 
3468.02 
3475.87 
3483.74 
3491.62 
3499.53 
3507.45 
3515.39 
3523.35 
3531.32 
3539.32 
3547.33 
3555.36 
3563.41 
3571.47 
3579.56 
3587.66 
3595.78 
3603.92 
3612.08 
3620.25 
3628.45 
3636.66 
3644.89 
3653.14 
3661.41 
3669.70 
3678.01 
3686.33 
3694.68 
3703.04 
3711.42 
3719.83 
3728.25 
3736.69 
3745.14 
3753.62 
3762.12 
3770.63 
3779.17 
3787.72 
3796.30 
3804.89 
3813.50 
3822.14 
3830.79 
3839.46 
3848.15 
3856.86 
3865.59 
3874.34 
3883.11 
3891.90 
3900.71 
3909.54 
3918.39 
3927.26 
3936.15 
3945.06 
3953.99 
3962.94 
3971.91 
3980.90 
3989.91 
3998.95 
4008.00 
4017.07 
4026.16 
4035.28 
4044.41 
4053.57 
4062.74 
4071.94 
4081.16 
4090.39 
4099.65 
4108.93 
4118.23 
4127.56 
4136.90 
4146.26 
4155.65 
4165.06 
4174.48 
4183.93 
4193.40 
4202.90 
4212.41 
4221.95 
4231.50 
4241.08 
4250.68 
4260.30 
4269.95 
4279.61 
4289.30 
4299.01 
4308.74 
4318.49 
4328.27 
4338.07 
4347.89 
4357.73 
4367.59 
4377.48 
4387.39 
4397.32 
4407.27 
4417.25 
4427.25 
4437.27 
4447.32 
4457.38 
4467.47 
4477.58 
4487.72 
4497.88 
4508.06 
4518.26 
4528.49 
4538.74 
4549.02 
4559.31 
4569.64 
4579.98 
4590.35 
4600.74 
4611.15 
4621.59 
4632.05 
4642.54 
4653.05 
4663.58 
4674.13 
4684.71 
4695.32 
4705.95 
4716.60 
4727.28 
4737.98 
4748.70 
4759.45 
4770.23 
4781.02 
4791.85 
4802.69 
4813.56 
4824.46 
4835.38 
4846.33 
4857.30 
4868.29 
4879.31 
4890.36 
4901.43 
4912.52 
4923.64 
4934.79 
4945.96 
4957.15 
4968.37 
4979.62 
4990.89 
5002.19 
5013.51 
5024.86 
5036.24 
5047.64 
5059.06 
5070.51 
5081.99 
5093.50 
5105.03 
5116.58 
5128.16 
5139.77 
5151.41 
5163.07 
5174.75 
5186.47 
5198.21 
5209.97 
5221.77 
5233.59 
5245.43 
5257.31 
5269.21 
5281.14 
5293.09 
5305.07 
5317.08 
5329.12 
5341.18 
5353.27 
5365.39 
5377.53 
5389.71 
5401.91 
5414.13 
5426.39 
5438.67 
5450.98 
5463.32 
5475.69 
5488.08 
5500.51 
5512.96 
5525.44 
5537.95 
5550.48 
5563.05 
5575.64 
5588.26 
5600.91 
5613.59 
5626.29 
5639.03 
5651.79 
5664.59 
5677.41 
5690.26 
5703.14 
5716.05 
5728.99 
5741.96 
5754.96 
5767.98 
5781.04 
5794.13 
5807.24 
5820.39 
5833.56 
5846.77 
5860.00 
5873.27 
5886.56 
5899.89 
5913.24 
5926.63 
5940.04 
5953.49 
5966.97 
5980.47 
5994.01 
6007.58 
6021.18 
6034.81 
6048.47 
6062.16 
6075.88 
6089.64 
6103.42 
6117.24 
6131.08 
6144.96 
6158.87 
6172.81 
6186.79 
6200.79 
6214.83 
6228.89 
6242.99 
6257.13 
6271.29 
6285.49 
6299.71 
6313.97 
6328.27 
6342.59 
6356.95 
6371.34 
6385.76 
6400.21 
6414.70 
6429.22 
6443.78 
6458.36 
6472.98 
6487.63 
6502.32 
6517.04 
6531.79 
6546.58 
6561.39 
6576.25 
6591.13 
6606.05 
6621.01 
6635.99 
6651.02 
6666.07 
6681.16 
6696.28 
6711.44 
6726.63 
6741.86 
6757.12 
6772.42 
6787.75 
6803.11 
6818.51 
6833.95 
6849.42 
6864.92 
6880.46 
6896.03 
6911.64 
6927.29 
6942.97 
6958.69 
6974.44 
6990.23 
7006.05 
7021.91 
7037.80 
7053.73 
7069.70 
7085.70 
7101.74 
7117.82 
7133.93 
7150.08 
7166.27 
7182.49 
7198.75 
7215.04 
7231.37 
7247.74 
7264.15 
7280.59 
7297.07 
7313.59 
7330.14 
7346.74 
7363.37 
7380.04 
7396.74 
7413.48 
7430.27 
7447.08 
7463.94 
7480.84 
7497.77 
7514.74 
7531.75 
7548.80 
7565.89 
7583.02 
7600.18 
7617.39 
7634.63 
7651.91 
7669.23 
7686.59 
7703.99 
7721.43 
7738.91 
7756.43 
7773.98 
7791.58 
7809.22 
7826.90 
7844.61 
7862.37 
7880.17 
7898.01 
7915.88 
7933.80 
7951.76 
7969.76 
7987.80 
8005.88 
8024.01 
8042.17 
8060.37 
8078.62 
8096.91 
8115.23 
8133.60 
8152.01 
8170.47 
8188.96 
8207.50 
8226.08 
8244.70 
8263.36 
8282.07 
8300.81 
8319.60 
8338.44 
8357.31 
8376.23 
8395.19 
8414.19 
8433.24 
8452.33 
8471.46 
8490.64 
8509.86 
8529.12 
8548.43 
8567.78 
8587.17 
8606.61 
8626.09 
8645.62 
8665.19 
8684.80 
8704.46 
8724.17 
8743.92 
8763.71 
8783.55 
8803.43 
8823.36 
8843.33 
8863.35 
8883.41 
8903.52 
8923.67 
8943.87 
8964.12 
8984.41 
9004.75 
9025.13 
9045.56 
9066.04 
9086.56 
9107.13 
9127.74 
9148.40 
9169.11 
9189.87 
9210.67 
9231.52 
9252.41 
9273.36 
9294.35 
9315.39 
9336.48 
9357.61 
9378.79 
9400.02 
9421.30 
9442.63 
9464.00 
9485.42 
9506.89 
9528.41 
9549.98 
9571.60 
9593.27 
9614.98 
9636.75 
9658.56 
9680.42 
9702.34 
9724.30 
9746.31 
9768.37 
9790.49 
9812.65 
9834.86 
9857.12 
9879.44 
9901.80 
9924.21 
9946.68 
9969.19 
9991.76 
10014.38
10037.05
10059.77
10082.54
10105.36
10128.23
10151.16
10174.14
10197.17
10220.25
10243.39
10266.57
10289.81
10313.11
10336.45
10359.85
10383.30
10406.80
10430.36
10453.97
10477.63
10501.35
10525.12
10548.95
10572.83
10596.76
10620.75
10644.79
10668.88
10693.03
10717.24
10741.50
10765.81
10790.18
10814.61
10839.09
10863.62
10888.21
10912.86
10937.56
10962.32
10987.14
11012.01
11036.93
11061.92
11086.96
11112.06
11137.21
11162.42
11187.69
11213.01
11238.39
11263.83
11289.33
11314.88
11340.50
11366.17
11391.90
11417.68
11443.53
11469.43
11495.39
11521.42
11547.50
11573.63
11599.83
11626.09
11652.41
11678.78
11705.22
11731.72
11758.27
11784.89
11811.57
11838.30
11865.10
11891.96
11918.88
11945.86
11972.90
12000.00
